Time (s)   Thrust (N)   RPM  Input
0.00020	2.05990	3781.48300	7.00000
0.03343	2.24035	4061.38300	7.00000
0.06806	2.51167	4140.62500	7.00000
0.10274	2.71801	4291.59600	7.00000
0.13742	2.86386	4382.19600	7.00000
0.17215	2.98028	4432.09200	7.00000
0.20684	3.05783	4525.24000	7.00000
0.24156	3.11976	4597.35600	7.00000
0.27622	3.17402	4604.43000	7.00000
0.31097	3.21313	4602.53900	7.00000
0.34567	3.23213	4614.25800	7.00000
0.38038	3.25644	4646.48400	7.00000
0.41508	3.28307	4632.52300	7.00000
0.44978	3.28906	4687.50000	7.00000
0.48449	3.30964	4638.31000	7.00000
0.51919	3.32015	4681.71300	7.00000
0.55390	3.33015	4652.77800	7.00000
0.58860	3.33253	4690.39300	7.00000
0.62330	3.33341	4661.45800	7.00000
0.65800	3.33844	4673.03200	7.00000
0.69272	3.34232	4701.96700	7.00000
0.72742	3.33494	4737.30400	7.00000
0.76213	3.34548	4681.71300	7.00000
0.79684	3.34673	4716.43500	7.00000
0.83153	3.33937	4687.50000	7.00000
0.86624	3.35191	4687.50000	7.00000
0.90094	3.34773	4719.32900	7.00000
0.93565	3.35603	4687.50000	7.00000
0.97035	3.35065	4664.63400	7.00000
1.00506	3.35422	4687.50000	7.00000
1.03977	3.35132	4687.50000	7.00000
1.07447	3.34747	4716.43500	7.00000
1.10918	3.35220	4687.50000	7.00000
1.14387	3.35510	4693.28700	7.00000
1.17857	3.35269	4656.05900	7.00000
1.21329	3.35372	4687.50000	7.00000
1.24798	3.35652	4693.28700	7.00000
1.28271	3.35055	4725.11500	7.00000
1.31740	3.35808	4693.28700	7.00000
1.35210	3.35577	4728.00900	7.00000
1.38681	3.36527	4693.28700	7.00000
1.42152	3.35912	4751.95300	7.00000
1.45622	3.36161	4661.77600	7.00000
1.49090	3.36511	4687.50000	7.00000
1.52563	3.36266	4690.39300	7.00000
1.56032	3.36247	4713.54100	7.00000
1.59503	3.37018	4687.50000	7.00000
1.62974	3.36458	4693.28700	7.00000
1.66444	3.36439	4716.43500	7.00000
1.69915	3.36353	4687.50000	7.00000
1.73386	3.36991	4716.43500	7.00000
1.76855	3.36532	4746.09400	7.00000
1.80327	3.36889	4684.60600	7.00000
1.83798	3.36827	4713.54100	7.00000
1.87268	3.36849	4684.60600	7.00000
1.90738	3.36963	4684.60600	7.00000
1.94207	3.37329	4713.54100	7.00000
1.97680	3.36453	4684.60600	7.00000
2.05581	3.34680	4743.16400	7.00000
2.09050	3.36445	4664.63400	7.00000
2.12520	3.36187	4684.60600	7.00000
2.15990	3.36451	4678.81900	7.00000
2.19462	3.36653	4656.05900	7.00000
2.22933	3.36357	4684.60600	7.00000
2.26402	3.36768	4707.75500	7.00000
2.29873	3.37006	4681.71300	7.00000
2.33343	3.36950	4678.81900	7.00000
2.36813	3.36472	4707.75500	7.00000
2.40285	3.36273	4687.50000	7.00000
2.43755	3.36706	4684.60600	7.00000
2.47226	3.36272	4710.64800	7.00000
2.50696	3.35916	4684.60600	7.00000
2.54166	3.36900	4681.71300	7.00000
2.57637	3.36905	4716.43500	7.00000
2.61107	3.36137	4673.03200	7.00000
2.64578	3.36881	4653.20100	7.00000
2.68048	3.37667	4675.92600	7.00000
2.71519	3.37513	4728.51500	7.00000
2.74989	3.37378	4696.18000	7.00000
2.78460	3.36723	4667.24500	7.00000
2.81931	3.37534	4670.13900	7.00000
2.85401	3.37273	4636.05200	7.00000
2.88872	3.37181	4667.24500	7.00000
2.92342	3.37768	4722.65600	7.00000
2.95812	3.37275	4693.28700	7.00000
2.99284	3.37423	4728.51500	7.00000
3.02754	3.36747	4670.13900	7.00000
3.06223	3.37568	4664.35100	7.00000
3.09694	3.37278	4716.79700	7.00000
3.13166	3.37180	4681.71300	7.00000
3.16636	3.36923	4658.56500	7.00000
3.20106	3.36752	4719.72600	7.00000
3.23577	3.36512	4690.39300	7.00000
3.27047	3.36488	4661.45800	7.00000
3.30518	3.37526	4716.79700	7.00000
3.33988	3.35673	4687.50000	7.00000
3.37459	3.37044	4661.45800	7.00000
3.40930	3.37413	4716.79700	7.00000
3.44401	3.35568	4690.39300	7.00000
3.47870	3.37248	4716.79700	7.00000
3.51342	3.36844	4693.28700	7.00000
3.54813	3.36873	4722.65600	7.00000
3.58282	3.36959	4719.72600	7.00000
3.61754	3.36922	4690.39300	7.00000
3.65225	3.37241	4719.72600	7.00000
3.68694	3.37245	4710.93700	7.00000
3.72164	3.37557	4687.50000	7.00000
3.75635	3.37595	4710.93700	7.00000
3.79106	3.36702	4713.86700	7.00000
3.82577	3.37588	4687.50000	7.00000
3.86047	3.37008	4652.77800	7.00000
3.89517	3.36461	4655.67100	7.00000
3.92990	3.36605	4675.92600	7.00000
3.96460	3.35852	4649.88400	7.00000
3.99929	3.36827	4675.92600	7.00000
4.03401	3.37443	4713.86700	7.00000
4.06871	3.37929	4708.00800	7.00000
4.10341	3.37772	4675.92600	7.00000
4.13812	3.37953	4646.99000	7.00000
4.17282	3.37588	4641.20300	7.00000
4.20753	3.38099	4673.03200	7.00000
4.24223	3.37795	4702.14800	7.00000
4.27694	3.37514	4699.21900	7.00000
4.31164	3.37602	4667.24500	7.00000
4.34635	3.37749	4693.35900	7.00000
4.38106	3.36604	4699.21900	7.00000
4.41576	3.36854	4664.35100	7.00000
4.45046	3.36521	4693.35900	7.00000
4.48518	3.36797	4664.35100	7.00000
4.51988	3.36485	4632.52300	7.00000
4.55459	3.34964	4641.20300	7.00000
4.58929	3.36211	4664.35100	7.00000
4.62400	3.35594	4635.41700	7.00000
4.65872	3.37016	4644.09700	7.00000
4.69341	3.36795	4667.24500	7.00000
4.72811	3.36995	4708.00800	7.00000
4.76282	3.36891	4705.07800	7.00000
4.79753	3.37343	4673.03200	7.00000
4.83223	3.36604	4644.09700	7.00000
4.86695	3.36298	4652.77800	7.00000
4.90165	3.36137	4673.03200	7.00000
4.93636	3.36665	4708.00800	7.00000
4.97106	3.37211	4675.92600	7.00000
5.00615	3.37357	4661.13300	6.22500
5.04053	2.79042	4167.38000	6.22500
5.11985	2.57002	4010.78300	6.22500
5.15455	2.44013	3923.23300	6.22500
5.18926	2.31273	3889.92500	6.22500
5.22396	2.20567	3767.49000	6.22500
5.25867	2.12956	3680.03700	6.22500
5.29339	2.07692	3668.32300	6.22500
5.32807	2.03427	3670.67300	6.22500
5.36278	2.00025	3627.40300	6.22500
5.39748	1.97364	3598.55700	6.22500
5.43220	1.95559	3576.92300	6.22500
5.46690	1.93433	3558.89400	6.22500
5.50161	1.92816	3596.19100	6.22500
5.53631	1.91608	3526.44200	6.22500
5.57103	1.94580	3566.89400	6.22500
5.60573	1.91118	3566.89400	6.22500
5.64042	1.89529	3559.57000	6.22500
5.67514	1.89898	3493.99000	6.22500
5.70984	1.89904	3544.92200	6.22500
5.74454	1.88979	3537.59700	6.22500
5.77926	1.88941	3530.27300	6.22500
5.81396	1.92406	3526.61100	6.22500
5.84868	1.88636	3522.94900	6.22500
5.88337	1.88440	3468.75000	6.22500
5.91808	1.87419	3519.28700	6.22500
5.95278	1.87624	3519.28700	6.22500
5.98750	1.86961	3519.28700	6.22500
6.02219	1.88274	3519.28700	6.22500
6.05691	1.87802	3519.28700	6.22500
6.09161	1.87589	3468.75000	6.22500
6.12631	1.87834	3515.62500	6.22500
6.16103	1.87004	3519.28700	6.22500
6.19575	1.86535	3519.28700	6.22500
6.23044	1.86439	3519.28700	6.22500
6.26515	1.86450	3519.28700	6.22500
6.29986	1.86652	3519.28700	6.22500
6.33457	1.86943	3519.28700	6.22500
6.36927	1.86970	3519.28700	6.22500
6.40397	1.86883	3519.28700	6.22500
6.43867	1.86320	3465.14400	6.22500
6.47337	1.86718	3522.94900	6.22500
6.50809	1.86213	3519.28700	6.22500
6.54279	1.86755	3522.94900	6.22500
6.57750	1.86326	3519.28700	6.22500
6.61220	1.85891	3522.94900	6.22500
6.64690	1.85989	3519.28700	6.22500
6.68162	1.86176	3522.94900	6.22500
6.71632	1.87327	3522.94900	6.22500
6.75102	1.87688	3522.94900	6.22500
6.78573	1.86847	3522.94900	6.22500
6.82043	1.87594	3519.28700	6.22500
6.85516	1.86951	3522.94900	6.22500
6.88985	1.86835	3522.94900	6.22500
6.92457	1.87321	3522.94900	6.22500
6.95927	1.88057	3468.75000	6.22500
6.99396	1.86953	3472.35500	6.22500
7.02868	1.87351	3522.94900	6.22500
7.06338	1.88144	3522.94900	6.22500
7.09809	1.88429	3519.28700	6.22500
7.13279	1.88280	3519.28700	6.22500
7.16750	1.87953	3468.75000	6.22500
7.20220	1.88176	3519.28700	6.22500
7.23691	1.88542	3519.28700	6.22500
7.31597	1.89002	3519.28700	6.22500
7.35068	1.88149	3522.94900	6.22500
7.38538	1.88266	3519.28700	6.22500
7.42008	1.88021	3519.28700	6.22500
7.45478	1.87628	3511.96300	6.22500
7.48950	1.87966	3515.62500	6.22500
7.52419	1.87753	3511.96300	6.22500
7.55890	1.87879	3519.28700	6.22500
7.59361	1.88054	3511.96300	6.22500
7.62832	1.88301	3511.96300	6.22500
7.66302	1.87734	3511.96300	6.22500
7.69773	1.88410	3511.96300	6.22500
7.73242	1.88175	3511.96300	6.22500
7.76714	1.88118	3508.30000	6.22500
7.80185	1.88749	3508.30000	6.22500
7.83654	1.88212	3508.30000	6.22500
7.87125	1.87713	3508.30000	6.22500
7.90595	1.88288	3508.30000	6.22500
7.94067	1.87937	3504.63800	6.22500
7.97530	1.90090	3504.63800	6.22500
8.01008	1.88665	3504.63800	6.22500
8.04480	1.88811	3504.63800	6.22500
8.07949	1.88770	3504.63800	6.22500
8.11419	1.88591	3508.30000	6.22500
8.14889	1.88339	3560.26700	6.22500
8.18360	1.90474	3500.97600	6.22500
8.21831	1.89902	3497.31400	6.22500
8.25301	1.89338	3500.97600	6.22500
8.28772	1.89158	3497.31400	6.22500
8.32241	1.88696	3497.31400	6.22500
8.35712	1.88515	3497.31400	6.22500
8.39183	1.88030	3493.65200	6.22500
8.42652	1.88890	3497.31400	6.22500
8.46123	1.89803	3497.31400	6.22500
8.49594	1.88177	3493.65200	6.22500
8.53066	1.90446	3493.65200	6.22500
8.60890	1.89501	3549.10700	6.22500
8.64362	1.88404	3500.97600	6.22500
8.67833	1.88649	3549.10700	6.22500
8.71303	1.88876	3497.31400	6.22500
8.74773	1.88932	3497.31400	6.22500
8.78245	1.88739	3497.31400	6.22500
8.81716	1.91318	3497.31400	6.22500
8.85185	1.89715	3497.31400	6.22500
8.88656	1.89163	3493.65200	6.22500
8.92125	1.88851	3493.65200	6.22500
8.95596	1.88418	3493.65200	6.22500
8.99067	1.88809	3493.65200	6.22500
9.02537	1.88771	3497.31400	6.22500
9.06008	1.90816	3497.31400	6.22500
9.09479	1.89625	3493.65200	6.22500
9.12949	1.88807	3493.65200	6.22500
9.16420	1.88645	3497.31400	6.22500
9.19890	1.89195	3497.31400	6.22500
9.23360	1.88969	3497.31400	6.22500
9.26832	1.88587	3497.31400	6.22500
9.30302	1.89489	3497.31400	6.22500
9.33773	1.89319	3493.65200	6.22500
9.37244	1.88971	3493.65200	6.22500
9.40714	1.88954	3493.65200	6.22500
9.44184	1.89593	3493.65200	6.22500
9.47656	1.89013	3489.99000	6.22500
9.51126	1.88775	3489.99000	6.22500
9.54597	1.88698	3489.99000	6.22500
9.58066	1.88354	3549.10700	6.22500
9.61537	1.90720	3486.32800	6.22500
9.65008	1.89493	3486.32800	6.22500
9.68479	1.89068	3493.65200	6.22500
9.71950	1.88626	3489.99000	6.22500
9.75419	1.88863	3489.99000	6.22500
9.78891	1.88392	3489.99000	6.22500
9.82359	1.87670	3486.32800	6.22500
9.85830	1.88322	3549.10700	6.22500
9.93673	1.86863	3549.10700	6.22500
