Time (s)   Thrust (N)   RPM
0.00031	0.00000	5395.26600
0.00421	0.00000	5395.26600
0.00808	0.00000	5395.26600
0.01196	0.00000	5414.29900
0.01584	0.00000	5414.29900
0.01970	0.00000	5414.29900
0.02358	0.00000	5414.29900
0.02754	0.00000	5414.29900
0.03138	0.00000	5414.29900
0.03523	0.00000	5354.38200
0.03907	0.00000	5354.38200
0.04291	0.00000	5354.38200
0.04674	0.00000	5354.38200
0.05057	0.00000	5354.38200
0.05440	0.00000	5354.38200
0.05824	0.00000	5354.38200
0.06207	0.00000	5168.45700
0.06587	0.00000	5168.45700
0.06971	0.00000	5168.45700
0.07355	0.00000	5168.45700
0.07738	0.00000	5168.45700
0.08121	0.00000	5168.45700
0.08504	0.00000	5093.24500
0.08888	0.00000	5093.24500
0.09271	0.00000	5093.24500
0.09654	0.00000	5093.24500
0.10037	0.00000	5093.24500
0.10422	0.00000	5093.24500
0.10805	0.00000	5048.07700
0.11189	0.00000	5048.07700
0.11573	0.00000	5048.07700
0.11956	0.00000	5048.07700
0.12339	0.00000	5048.07700
0.12722	0.00000	5048.07700
0.13105	0.00000	4984.37500
0.13489	0.00000	4984.37500
0.13872	0.00000	4984.37500
0.14255	0.00000	4984.37500
0.14639	0.00000	4984.37500
0.15023	0.00000	4984.37500
0.15406	0.00000	4927.14200
0.15786	0.00000	4927.14200
0.16169	0.00000	4927.14200
0.16553	0.00000	4927.14200
0.16936	0.00000	4927.14200
0.17319	0.00000	4927.14200
0.17702	0.00000	4889.91400
0.18085	0.00000	4889.91400
0.18467	0.00000	4889.91400
0.18850	0.00000	4889.91400
0.19233	0.00000	4889.91400
0.19616	0.00000	4889.91400
0.19999	0.00000	4881.46600
0.20382	0.00000	4881.46600
0.20765	0.00000	4881.46600
0.21149	0.00000	4881.46600
0.21532	0.00000	4881.46600
0.21916	0.00000	4881.46600
0.22300	0.00000	4838.36200
0.22685	0.00000	4838.36200
0.23068	0.00000	4838.36200
0.23453	0.00000	4838.36200
0.23837	0.00000	4838.36200
0.24220	0.00000	4838.36200
0.24605	0.00000	4806.03400
0.24987	0.00000	4806.03400
0.25370	0.00000	4806.03400
0.25754	0.00000	4806.03400
0.26136	0.00000	4806.03400
0.26520	0.00000	4806.03400
0.26903	0.00000	4826.48900
0.27287	0.00000	4826.48900
0.27671	0.00000	4826.48900
0.28054	0.00000	4826.48900
0.28438	0.00000	4826.48900
0.28822	0.00000	4826.48900
0.29205	0.00000	4804.68700
0.29589	0.00000	4804.68700
0.29973	0.00000	4804.68700
0.30356	0.00000	4804.68700
0.30740	0.00000	4804.68700
0.31123	0.00000	4804.68700
0.31507	0.00000	4825.36700
0.31891	0.00000	4825.36700
0.32274	0.00000	4825.36700
0.32659	0.00000	4825.36700
0.33043	0.00000	4825.36700
0.33426	0.00000	4825.36700
0.33810	0.00000	4750.18100
0.34193	0.00000	4750.18100
0.34577	0.00000	4750.18100
0.34959	0.00000	4750.18100
0.35342	0.00000	4750.18100
0.35727	0.00000	4770.22000
0.36113	0.00000	4770.22000
0.36497	0.00000	4770.22000
0.36881	0.00000	4770.22000
0.37265	0.00000	4770.22000
0.37649	0.00000	4770.22000
0.38032	0.00000	4761.94800
0.38415	0.00000	4761.94800
0.38799	0.00000	4761.94800
0.39182	0.00000	4761.94800
0.39565	0.00000	4761.94800
0.39949	0.00000	4761.94800
0.40332	0.00000	4748.16100
0.40716	0.00000	4748.16100
0.41098	0.00000	4748.16100
0.41482	0.00000	4748.16100
0.41866	0.00000	4748.16100
0.42249	0.00000	4748.16100
0.42633	0.00000	4748.16100
0.43016	0.00000	4748.16100
0.43399	0.00000	4748.16100
0.43782	0.00000	4748.16100
0.44167	0.00000	4748.16100
0.44549	0.00000	4748.16100
0.44933	0.00000	4734.37500
0.45316	0.00000	4734.37500
0.45699	0.00000	4734.37500
0.46083	0.00000	4734.37500
0.46466	0.00000	4734.37500
0.46851	0.00000	4706.80200
0.47235	0.00000	4706.80200
0.47617	0.00000	4706.80200
0.48001	0.00000	4706.80200
0.48385	0.00000	4706.80200
0.48768	0.00000	4706.80200
0.49151	0.00000	4728.86000
0.49534	0.00000	4728.86000
0.49917	0.00000	4728.86000
0.50300	0.00000	4728.86000
0.50684	0.00000	4728.86000
0.51068	0.00000	4728.86000
0.51452	0.00000	4717.83100
0.51835	0.00000	4717.83100
0.52219	0.00000	4717.83100
0.52603	0.00000	4717.83100
0.52987	0.00000	4717.83100
0.53370	0.00000	4717.83100
0.53754	0.00000	4779.57500
0.54138	0.00000	4779.57500
0.54521	0.00000	4779.57500
0.54905	0.00000	4779.57500
0.55288	0.00000	4779.57500
0.55672	0.00000	4706.80200
0.56055	0.00000	4706.80200
0.56438	0.00000	4706.80200
0.56822	0.00000	4706.80200
0.57205	0.00000	4706.80200
0.57589	0.00000	4706.80200
0.57972	0.00000	4709.55900
0.58356	0.00000	4709.55900
0.58739	0.00000	4709.55900
0.59123	0.00000	4709.55900
0.59505	0.00000	4709.55900
0.59891	0.00000	4709.55900
0.60274	0.00000	4715.07300
0.60657	0.00000	4715.07300
0.61040	0.00000	4715.07300
0.61423	0.00000	4715.07300
0.61806	0.00000	4715.07300
0.62186	0.00000	4715.07300
0.62569	0.00000	4712.31600
0.62952	0.00000	4712.31600
0.63336	0.00000	4712.31600
0.63719	0.00000	4712.31600
0.64103	0.00000	4712.31600
0.64486	0.00000	4712.31600
0.64868	0.00000	4765.62500
0.65251	0.00000	4765.62500
0.65634	0.00000	4765.62500
0.66017	0.00000	4765.62500
0.66401	0.00000	4765.62500
0.66785	0.00000	4737.72300
0.67168	0.00000	4737.72300
0.67551	0.00000	4737.72300
0.67935	0.00000	4737.72300
0.68317	0.00000	4737.72300
0.68701	0.00000	4737.72300
0.69084	0.00000	4717.83100
0.69468	0.00000	4717.83100
0.69851	0.00000	4717.83100
0.70234	0.00000	4717.83100
0.70617	0.00000	4717.83100
0.71000	0.00000	4717.83100
0.71384	0.00000	4782.36600
0.71767	0.00000	4782.36600
0.72152	0.00000	4782.36600
0.72536	0.00000	4782.36600
0.72919	0.00000	4782.36600
0.73303	0.00000	4782.36600
0.73686	0.00000	4712.31600
0.74070	0.00000	4712.31600
0.74454	0.00000	4712.31600
0.74837	0.00000	4712.31600
0.75220	0.00000	4712.31600
0.75603	0.00000	4754.46400
0.75989	0.00000	4754.46400
0.76372	0.00000	4754.46400
0.76755	0.00000	4754.46400
0.77139	0.00000	4754.46400
0.77523	0.00000	4754.46400
0.77906	0.00000	4768.41500
0.78289	0.00000	4768.41500
0.78672	0.00000	4768.41500
0.79055	0.00000	4768.41500
0.79439	0.00000	4768.41500
0.79822	0.00000	4768.41500
0.80205	0.00000	4701.28600
0.80586	0.00000	4701.28600
0.80970	0.00000	4701.28600
0.81353	0.00000	4701.28600
0.81737	0.00000	4701.28600
0.82119	0.00000	4701.28600
0.82502	0.00000	4698.52900
0.82885	0.00000	4698.52900
0.83268	0.00000	4698.52900
0.83652	0.00000	4698.52900
0.84040	0.00000	4698.52900
0.84427	0.00000	4737.72300
0.84813	0.00000	4737.72300
0.85197	0.00000	4737.72300
0.85581	0.00000	4737.72300
0.85965	0.00000	4737.72300
0.86348	0.00000	4737.72300
0.86731	0.00000	4754.46400
0.87114	0.00000	4754.46400
0.87498	0.00000	4754.46400
0.87882	0.00000	4754.46400
0.88266	0.00000	4754.46400
0.88649	0.00000	4754.46400
0.89032	0.00000	4709.55900
0.89416	0.00000	4709.55900
0.89800	0.00000	4709.55900
0.90184	0.00000	4709.55900
0.90568	0.00000	4709.55900
0.90952	0.00000	4709.55900
0.91335	0.00000	4715.07300
0.91719	0.00000	4715.07300
0.92101	0.00000	4715.07300
0.92484	0.00000	4715.07300
0.92868	0.00000	4715.07300
0.93251	0.00000	4743.30300
0.93634	0.00000	4743.30300
0.94018	0.00000	4743.30300
0.94401	0.00000	4743.30300
0.94785	0.00000	4743.30300
0.95168	0.00000	4743.30300
0.95552	0.00000	4701.28600
0.95935	0.00000	4701.28600
0.96318	0.00000	4701.28600
0.96702	0.00000	4701.28600
0.97086	0.00000	4701.28600
0.97470	0.00000	4701.28600
0.97853	0.00000	4704.04400
0.98237	0.00000	4704.04400
0.98621	0.00000	4704.04400
0.99006	0.00000	4704.04400
0.99386	0.00000	4704.04400
0.99770	0.00000	4704.04400
1.00153	0.00000	4751.67400
1.00537	0.00000	4751.67400
1.00920	0.00000	4751.67400
1.01303	0.00000	4751.67400
1.01687	0.00000	4751.67400
1.02070	0.00000	4729.35200
1.02454	0.00000	4729.35200
1.02837	0.00000	4729.35200
1.03219	0.00000	4729.35200
1.03603	0.00000	4729.35200
1.03986	0.00000	4729.35200
1.04370	0.00000	4732.14200
1.04755	0.00000	4732.14200
1.05140	0.00000	4732.14200
1.05524	0.00000	4732.14200
1.05908	0.00000	4732.14200
1.06291	0.00000	4732.14200
1.06675	0.00000	4746.09400
1.07060	0.00000	4746.09400
1.07443	0.00000	4746.09400
1.07828	0.00000	4746.09400
1.08212	0.00000	4746.09400
1.08596	0.00000	4746.09400
1.08979	0.00000	4701.28600
1.09362	0.00000	4701.28600
1.09746	0.00000	4701.28600
1.10130	0.00000	4701.28600
1.10513	0.00000	4701.28600
1.10896	0.00000	4734.93300
1.11279	0.00000	4734.93300
1.11663	0.00000	4734.93300
1.12046	0.00000	4734.93300
1.12429	0.00000	4734.93300
1.12813	0.00000	4734.93300
1.13195	0.00000	4751.67400
1.13579	0.00000	4751.67400
1.13961	0.00000	4751.67400
1.14345	0.00000	4751.67400
1.14729	0.00000	4751.67400
1.15112	0.00000	4751.67400
1.15494	0.00000	4768.41500
1.15878	0.00000	4768.41500
1.16262	0.00000	4768.41500
1.16645	0.00000	4768.41500
1.17029	0.00000	4768.41500
1.17413	0.00000	4768.41500
1.17796	0.00000	4698.52900
1.18183	0.00000	4698.52900
1.18568	0.00000	4698.52900
1.18952	0.00000	4698.52900
1.19336	0.00000	4698.52900
1.19719	0.00000	4670.95500
1.20102	0.00000	4670.95500
1.20486	0.00000	4670.95500
1.20870	0.00000	4670.95500
1.21253	0.00000	4670.95500
1.21637	0.00000	4670.95500
1.22021	0.00000	4734.93300
1.22404	0.00000	4734.93300
1.22787	0.00000	4734.93300
1.23171	0.00000	4734.93300
1.23555	0.00000	4734.93300
1.23938	0.00000	4734.93300
1.24321	0.00000	4698.52900
1.24704	0.00000	4698.52900
1.25087	0.00000	4698.52900
1.25470	0.00000	4698.52900
1.25853	0.00000	4698.52900
1.26236	0.00000	4698.52900
1.26619	0.00000	4704.04400
1.27002	0.00000	4704.04400
1.27386	0.00000	4704.04400
1.27770	0.00000	4704.04400
1.28153	0.00000	4704.04400
1.28536	0.00000	4723.77200
1.28918	0.00000	4723.77200
1.29302	0.00000	4723.77200
1.29685	0.00000	4723.77200
1.30069	0.00000	4723.77200
1.30453	0.00000	4723.77200
1.30837	0.00000	4732.14200
1.31220	0.00000	4732.14200
1.31603	0.00000	4732.14200
1.31987	0.00000	4732.14200
1.32371	0.00000	4732.14200
1.32754	0.00000	4732.14200
1.33137	0.00000	4701.28600
1.33520	0.00000	4701.28600
1.33902	0.00000	4701.28600
1.34285	0.00000	4701.28600
1.34668	0.00000	4701.28600
1.35052	0.00000	4701.28600
1.35435	0.00000	4687.50000
1.35820	0.00000	4687.50000
1.36205	0.00000	4687.50000
1.36586	0.00000	4687.50000
1.36969	0.00000	4687.50000
1.37352	0.00000	4687.50000
1.37734	0.00000	4751.67400
1.38119	0.00000	4751.67400
1.38503	0.00000	4751.67400
1.38887	0.00000	4751.67400
1.39271	0.00000	4751.67400
1.39654	0.00000	4740.51300
1.40037	0.00000	4740.51300
1.40421	0.00000	4740.51300
1.40805	0.00000	4740.51300
1.41187	0.00000	4740.51300
1.41571	0.00000	4740.51300
1.41955	0.00000	4712.31600
1.42338	0.00000	4712.31600
1.42722	0.00000	4712.31600
1.43105	0.00000	4712.31600
1.43488	0.00000	4712.31600
1.43872	0.00000	4712.31600
1.44254	0.00000	4706.80200
1.44638	0.00000	4706.80200
1.45021	0.00000	4706.80200
1.45404	0.00000	4706.80200
1.45786	0.00000	4706.80200
1.46170	0.00000	4706.80200
1.46552	0.00000	4746.09400
1.46935	0.00000	4746.09400
1.47319	0.00000	4746.09400
1.47703	0.00000	4746.09400
1.48087	0.00000	4746.09400
1.48470	0.00000	4743.30300
1.48855	0.00000	4743.30300
1.49238	0.00000	4743.30300
1.49623	0.00000	4743.30300
1.50007	0.00000	4743.30300
1.50391	0.00000	4743.30300
1.50774	0.00000	4706.80200
1.51158	0.00000	4706.80200
1.51541	0.00000	4706.80200
1.51925	0.00000	4706.80200
1.52309	0.00000	4706.80200
1.52692	0.00000	4706.80200
1.53076	0.00000	4701.28600
1.53459	0.00000	4701.28600
1.53843	0.00000	4701.28600
1.54227	0.00000	4701.28600
1.54609	0.00000	4701.28600
1.54993	0.00000	4701.28600
1.55376	0.00000	4740.51300
1.55758	0.00000	4740.51300
1.56143	0.00000	4740.51300
1.56527	0.00000	4740.51300
1.56911	0.00000	4740.51300
1.57294	0.00000	4732.14200
1.57679	0.00000	4732.14200
1.58063	0.00000	4732.14200
1.58446	0.00000	4732.14200
1.58829	0.00000	4732.14200
1.59212	0.00000	4732.14200
1.59595	0.00000	4701.28600
1.59978	0.00000	4701.28600
1.60362	0.00000	4701.28600
1.60746	0.00000	4701.28600
1.61130	0.00000	4701.28600
1.61514	0.00000	4701.28600
1.61898	0.00000	4701.28600
1.62281	0.00000	4701.28600
1.62665	0.00000	4701.28600
1.63048	0.00000	4701.28600
1.63432	0.00000	4701.28600
1.63816	0.00000	4701.28600
1.64199	0.00000	4765.62500
1.64583	0.00000	4765.62500
1.64967	0.00000	4765.62500
1.65350	0.00000	4765.62500
1.65734	0.00000	4765.62500
1.66116	0.00000	4732.14200
1.66501	0.00000	4732.14200
1.66886	0.00000	4732.14200
1.67270	0.00000	4732.14200
1.67652	0.00000	4732.14200
1.68035	0.00000	4732.14200
1.68419	0.00000	4701.28600
1.68803	0.00000	4701.28600
1.69186	0.00000	4701.28600
1.69569	0.00000	4701.28600
1.69952	0.00000	4701.28600
1.70335	0.00000	4701.28600
1.70718	0.00000	4712.31600
1.71102	0.00000	4712.31600
1.71485	0.00000	4712.31600
1.71867	0.00000	4712.31600
1.72252	0.00000	4712.31600
1.72636	0.00000	4712.31600
1.73020	0.00000	4754.46400
1.73403	0.00000	4754.46400
1.73786	0.00000	4754.46400
1.74170	0.00000	4754.46400
1.74553	0.00000	4754.46400
1.74937	0.00000	4729.35200
1.75324	0.00000	4729.35200
1.75708	0.00000	4729.35200
1.76092	0.00000	4729.35200
1.76475	0.00000	4729.35200
1.76859	0.00000	4729.35200
1.77243	0.00000	4709.55900
1.77626	0.00000	4709.55900
1.78010	0.00000	4709.55900
1.78395	0.00000	4709.55900
1.78779	0.00000	4709.55900
1.79162	0.00000	4709.55900
1.79545	0.00000	4715.07300
1.79929	0.00000	4715.07300
1.80312	0.00000	4715.07300
1.80695	0.00000	4715.07300
1.81078	0.00000	4715.07300
1.81461	0.00000	4715.07300
1.81845	0.00000	4757.25400
1.82228	0.00000	4757.25400
1.82611	0.00000	4757.25400
1.82994	0.00000	4757.25400
1.83377	0.00000	4757.25400
1.83760	0.00000	4729.35200
1.84144	0.00000	4729.35200
1.84528	0.00000	4729.35200
1.84910	0.00000	4729.35200
1.85294	0.00000	4729.35200
1.85677	0.00000	4729.35200
1.86061	0.00000	4732.14200
1.86446	0.00000	4732.14200
1.86829	0.00000	4732.14200
1.87212	0.00000	4732.14200
1.87597	0.00000	4732.14200
1.87979	0.00000	4732.14200
1.88362	0.00000	4698.52900
1.88745	0.00000	4698.52900
1.89128	0.00000	4698.52900
1.89511	0.00000	4698.52900
1.89894	0.00000	4698.52900
1.90277	0.00000	4698.52900
1.90661	0.00000	4690.25700
1.91044	0.00000	4690.25700
1.91427	0.00000	4690.25700
1.91812	0.00000	4690.25700
1.92196	0.00000	4690.25700
1.92580	0.00000	4729.35200
1.92964	0.00000	4729.35200
1.93347	0.00000	4729.35200
1.93731	0.00000	4729.35200
1.94115	0.00000	4729.35200
1.94498	0.00000	4729.35200
1.94882	0.00000	4734.93300
1.95266	0.00000	4734.93300
1.95649	0.00000	4734.93300
1.96032	0.00000	4734.93300
1.96415	0.00000	4734.93300
1.96798	0.00000	4734.93300
1.97181	0.00000	4743.30300
1.97565	0.00000	4743.30300
1.97949	0.00000	4743.30300
1.98333	0.00000	4743.30300
1.98716	0.00000	4743.30300
1.99100	0.00000	4743.30300
1.99483	0.00000	4715.07300
1.99867	0.00000	4715.07300
2.00250	0.00000	4715.07300
2.00633	0.00000	4715.07300
2.01016	0.00000	4715.07300
2.01399	0.00000	4670.95500
2.01783	0.00000	4670.95500
2.02167	0.00000	4670.95500
2.02550	0.00000	4670.95500
2.02934	0.00000	4670.95500
2.03317	0.00000	4670.95500
2.03700	0.00000	4676.47000
2.04083	0.00000	4676.47000
2.04466	0.00000	4676.47000
2.04850	0.00000	4676.47000
2.05233	0.00000	4676.47000
2.05617	0.00000	4676.47000
2.06001	0.00000	4690.25700
2.06383	0.00000	4690.25700
2.06767	0.00000	4690.25700
2.07152	0.00000	4690.25700
2.07535	0.00000	4690.25700
2.07917	0.00000	4690.25700
2.08300	0.00000	4734.93300
2.08682	0.00000	4734.93300
2.09065	0.00000	4734.93300
2.09448	0.00000	4734.93300
2.09830	0.00000	4734.93300
2.10214	0.00000	4720.98200
2.10600	0.00000	4720.98200
2.10983	0.00000	4720.98200
2.11368	0.00000	4720.98200
2.11751	0.00000	4720.98200
2.12135	0.00000	4720.98200
2.12518	0.00000	4740.51300
2.12902	0.00000	4740.51300
2.13287	0.00000	4740.51300
2.13670	0.00000	4740.51300
2.14054	0.00000	4740.51300
2.14437	0.00000	4740.51300
2.14822	0.00000	4743.30300
2.15206	0.00000	4743.30300
2.15591	0.00000	4743.30300
2.15975	0.00000	4743.30300
2.16358	0.00000	4743.30300
2.16742	0.00000	4743.30300
2.17125	0.00000	4690.25700
2.17509	0.00000	4690.25700
2.17892	0.00000	4690.25700
2.18275	0.00000	4690.25700
2.18659	0.00000	4690.25700
2.19043	0.00000	4726.56200
2.19428	0.00000	4726.56200
2.19811	0.00000	4726.56200
2.20195	0.00000	4726.56200
2.20579	0.00000	4726.56200
2.20962	0.00000	4726.56200
2.21346	0.00000	4690.25700
2.21729	0.00000	4690.25700
2.22112	0.00000	4690.25700
2.22495	0.00000	4690.25700
2.22879	0.00000	4690.25700
2.23263	0.00000	4690.25700
2.23645	0.00000	4701.28600
2.24029	0.00000	4701.28600
2.24411	0.00000	4701.28600
2.24792	0.00000	4701.28600
2.25175	0.00000	4701.28600
2.25558	0.00000	4701.28600
2.25941	0.00000	4751.67400
2.26324	0.00000	4751.67400
2.26710	0.00000	4751.67400
2.27093	0.00000	4751.67400
2.27476	0.00000	4751.67400
2.27858	0.00000	4715.40200
2.28242	0.00000	4715.40200
2.28624	0.00000	4715.40200
2.29006	0.00000	4715.40200
2.29386	0.00000	4715.40200
2.29768	0.00000	4715.40200
2.30150	0.00000	4729.35200
2.30532	0.00000	4729.35200
2.30915	0.00000	4729.35200
2.31298	0.00000	4729.35200
2.31679	0.00000	4729.35200
2.32061	0.00000	4729.35200
2.32443	0.00000	4757.25400
2.32824	0.00000	4757.25400
2.33207	0.00000	4757.25400
2.33590	0.00000	4757.25400
2.33974	0.00000	4757.25400
2.34357	0.00000	4757.25400
2.34740	0.00000	4687.50000
2.35124	0.00000	4687.50000
2.35506	0.00000	4687.50000
2.35889	0.00000	4687.50000
2.36272	0.00000	4687.50000
2.36655	0.00000	4718.19200
2.37038	0.00000	4718.19200
2.37421	0.00000	4718.19200
2.37804	0.00000	4718.19200
2.38186	0.00000	4718.19200
2.38569	0.00000	4718.19200
2.38951	0.00000	4681.98500
2.39335	0.00000	4681.98500
2.39719	0.00000	4681.98500
2.40102	0.00000	4681.98500
2.40485	0.00000	4681.98500
2.40870	0.00000	4681.98500
2.41254	0.00000	4704.04400
2.41638	0.00000	4704.04400
2.42022	0.00000	4704.04400
2.42405	0.00000	4704.04400
2.42788	0.00000	4704.04400
2.43170	0.00000	4704.04400
2.43555	0.00000	4760.04500
2.43939	0.00000	4760.04500
2.44322	0.00000	4760.04500
2.44705	0.00000	4760.04500
2.45088	0.00000	4760.04500
2.45473	0.00000	4760.04500
2.45856	0.00000	4723.77200
2.46239	0.00000	4723.77200
2.46621	0.00000	4723.77200
2.47005	0.00000	4723.77200
2.47386	0.00000	4723.77200
2.47770	0.00000	4723.77200
2.48153	0.00000	4723.77200
2.48537	0.00000	4723.77200
2.48919	0.00000	4723.77200
2.49302	0.00000	4723.77200
2.49685	0.00000	4723.77200
2.50068	0.00000	4751.67400
2.50452	0.00000	4751.67400
2.50836	0.00000	4751.67400
2.51219	0.00000	4751.67400
2.51602	0.00000	4751.67400
2.51985	0.00000	4751.67400
2.52368	0.00000	4698.52900
2.52750	0.00000	4698.52900
2.53133	0.00000	4698.52900
2.53516	0.00000	4698.52900
2.53900	0.00000	4698.52900
2.54283	0.00000	4698.52900
2.54665	0.00000	4670.95500
2.55048	0.00000	4670.95500
2.55431	0.00000	4670.95500
2.55817	0.00000	4670.95500
2.56201	0.00000	4670.95500
2.56584	0.00000	4734.93300
2.56967	0.00000	4734.93300
2.57352	0.00000	4734.93300
2.57735	0.00000	4734.93300
2.58119	0.00000	4734.93300
2.58502	0.00000	4734.93300
2.58885	0.00000	4693.01400
2.59268	0.00000	4693.01400
2.59652	0.00000	4693.01400
2.60035	0.00000	4693.01400
2.60418	0.00000	4693.01400
2.60800	0.00000	4693.01400
2.61183	0.00000	4751.67400
2.61566	0.00000	4751.67400
2.61948	0.00000	4751.67400
2.62331	0.00000	4751.67400
2.62715	0.00000	4751.67400
2.63098	0.00000	4751.67400
2.63481	0.00000	4740.51300
2.63865	0.00000	4740.51300
2.64249	0.00000	4740.51300
2.64633	0.00000	4740.51300
2.65017	0.00000	4740.51300
2.65401	0.00000	4732.14200
2.65785	0.00000	4732.14200
2.66169	0.00000	4732.14200
2.66552	0.00000	4732.14200
2.66936	0.00000	4732.14200
2.67319	0.00000	4732.14200
2.67701	0.00000	4693.01400
2.68084	0.00000	4693.01400
2.68467	0.00000	4693.01400
2.68850	0.00000	4693.01400
2.69233	0.00000	4693.01400
2.69616	0.00000	4693.01400
2.70000	0.00000	4687.50000
2.70383	0.00000	4687.50000
2.70768	0.00000	4687.50000
2.71151	0.00000	4687.50000
2.71536	0.00000	4687.50000
2.71919	0.00000	4687.50000
2.72302	0.00000	4743.30300
2.72686	0.00000	4743.30300
2.73071	0.00000	4743.30300
2.73453	0.00000	4743.30300
2.73838	0.00000	4743.30300
2.74221	0.00000	4743.30300
2.74605	0.00000	4743.30300
2.74986	0.00000	4743.30300
2.75371	0.00000	4743.30300
2.75754	0.00000	4743.30300
2.76138	0.00000	4743.30300
2.76521	0.00000	4757.25400
2.76904	0.00000	4757.25400
2.77287	0.00000	4757.25400
2.77670	0.00000	4757.25400
2.78053	0.00000	4757.25400
2.78436	0.00000	4757.25400
2.78819	0.00000	4698.52900
2.79202	0.00000	4698.52900
2.79586	0.00000	4698.52900
2.79969	0.00000	4698.52900
2.80353	0.00000	4698.52900
2.80736	0.00000	4698.52900
2.81120	0.00000	4754.46400
2.81503	0.00000	4754.46400
2.81887	0.00000	4754.46400
2.82271	0.00000	4754.46400
2.82655	0.00000	4754.46400
2.83038	0.00000	4726.56200
2.83422	0.00000	4726.56200
2.83805	0.00000	4726.56200
2.84186	0.00000	4726.56200
2.84569	0.00000	4726.56200
2.84953	0.00000	4726.56200
2.85337	0.00000	4754.46400
2.85721	0.00000	4754.46400
2.86104	0.00000	4754.46400
2.86488	0.00000	4754.46400
2.86871	0.00000	4754.46400
2.87254	0.00000	4754.46400
2.87638	0.00000	4704.04400
2.88021	0.00000	4704.04400
2.88404	0.00000	4704.04400
2.88788	0.00000	4704.04400
2.89172	0.00000	4704.04400
2.89555	0.00000	4704.04400
2.89938	0.00000	4698.52900
2.90322	0.00000	4698.52900
2.90706	0.00000	4698.52900
2.91090	0.00000	4698.52900
2.91473	0.00000	4698.52900
2.91857	0.00000	4732.14200
2.92242	0.00000	4732.14200
2.92625	0.00000	4732.14200
2.93008	0.00000	4732.14200
2.93391	0.00000	4732.14200
2.93774	0.00000	4732.14200
2.94157	0.00000	4748.88400
2.94540	0.00000	4748.88400
2.94924	0.00000	4748.88400
2.95307	0.00000	4748.88400
2.95690	0.00000	4748.88400
2.96073	0.00000	4748.88400
2.96457	0.00000	4751.67400
2.96841	0.00000	4751.67400
2.97223	0.00000	4751.67400
2.97606	0.00000	4751.67400
2.97989	0.00000	4751.67400
2.98372	0.00000	4751.67400
2.98756	0.00000	4704.04400
2.99139	0.00000	4704.04400
2.99522	0.00000	4704.04400
2.99904	0.00000	4704.04400
3.00288	0.00000	4704.04400
3.00672	0.00000	4723.77200
3.01056	0.00000	4723.77200
3.01439	0.00000	4723.77200
3.01822	0.00000	4723.77200
3.02205	0.00000	4723.77200
3.02586	0.00000	4723.77200
3.02970	0.00000	4679.22800
3.03352	0.00000	4679.22800
3.03735	0.00000	4679.22800
3.04118	0.00000	4679.22800
3.04502	0.00000	4679.22800
3.04885	0.00000	4679.22800
3.05269	0.00000	4695.77200
3.05652	0.00000	4695.77200
3.06035	0.00000	4695.77200
3.06418	0.00000	4695.77200
3.06802	0.00000	4695.77200
3.07186	0.00000	4695.77200
3.07569	0.00000	4762.83500
3.07952	0.00000	4762.83500
3.08336	0.00000	4762.83500
3.08718	0.00000	4762.83500
3.09101	0.00000	4762.83500
3.09484	0.00000	4712.61200
3.09870	0.00000	4712.61200
3.10253	0.00000	4712.61200
3.10636	0.00000	4712.61200
3.11019	0.00000	4712.61200
3.11403	0.00000	4712.61200
3.11786	0.00000	4737.72300
3.12169	0.00000	4737.72300
3.12552	0.00000	4737.72300
3.12935	0.00000	4737.72300
3.13318	0.00000	4737.72300
3.13701	0.00000	4737.72300
3.14086	0.00000	4701.28600
3.14470	0.00000	4701.28600
3.14854	0.00000	4701.28600
3.15237	0.00000	4701.28600
3.15621	0.00000	4701.28600
3.16005	0.00000	4701.28600
3.16388	0.00000	4690.25700
3.16771	0.00000	4690.25700
3.17155	0.00000	4690.25700
3.17538	0.00000	4690.25700
3.17921	0.00000	4690.25700
3.18305	0.00000	4720.98200
3.18688	0.00000	4720.98200
3.19072	0.00000	4720.98200
3.19456	0.00000	4720.98200
3.19838	0.00000	4720.98200
3.20222	0.00000	4720.98200
3.20605	0.00000	4737.72300
3.20986	0.00000	4737.72300
3.21369	0.00000	4737.72300
3.21752	0.00000	4737.72300
3.22135	0.00000	4737.72300
3.22519	0.00000	4737.72300
3.22902	0.00000	4768.41500
3.23285	0.00000	4768.41500
3.23668	0.00000	4768.41500
3.24052	0.00000	4768.41500
3.24435	0.00000	4768.41500
3.24818	0.00000	4768.41500
3.25202	0.00000	4709.55900
3.25586	0.00000	4709.55900
3.25968	0.00000	4709.55900
3.26351	0.00000	4709.55900
3.26734	0.00000	4709.55900
3.27117	0.00000	4670.95500
3.27499	0.00000	4670.95500
3.27883	0.00000	4670.95500
3.28265	0.00000	4670.95500
3.28649	0.00000	4670.95500
3.29033	0.00000	4670.95500
3.29417	0.00000	4673.71300
3.29800	0.00000	4673.71300
3.30183	0.00000	4673.71300
3.30566	0.00000	4673.71300
3.30949	0.00000	4673.71300
3.31333	0.00000	4673.71300
3.31716	0.00000	4709.55900
3.32099	0.00000	4709.55900
3.32481	0.00000	4709.55900
3.32864	0.00000	4709.55900
3.33247	0.00000	4709.55900
3.33631	0.00000	4709.55900
3.34015	0.00000	4715.07300
3.34399	0.00000	4715.07300
3.34782	0.00000	4715.07300
3.35165	0.00000	4715.07300
3.35547	0.00000	4715.07300
3.35931	0.00000	4715.07300
3.36313	0.00000	4679.22800
3.36698	0.00000	4679.22800
3.37080	0.00000	4679.22800
3.37464	0.00000	4679.22800
3.37847	0.00000	4679.22800
3.38229	0.00000	4676.47000
3.38615	0.00000	4676.47000
3.38998	0.00000	4676.47000
3.39381	0.00000	4676.47000
3.39765	0.00000	4676.47000
3.40149	0.00000	4676.47000
3.40532	0.00000	4704.04400
3.40917	0.00000	4704.04400
3.41301	0.00000	4704.04400
3.41685	0.00000	4704.04400
3.42068	0.00000	4704.04400
3.42452	0.00000	4704.04400
3.42835	0.00000	4765.62500
3.43218	0.00000	4765.62500
3.43602	0.00000	4765.62500
3.43985	0.00000	4765.62500
3.44368	0.00000	4765.62500
3.44752	0.00000	4765.62500
3.45134	0.00000	4681.98500
3.45517	0.00000	4681.98500
3.45901	0.00000	4681.98500
3.46284	0.00000	4681.98500
3.46667	0.00000	4681.98500
3.47051	0.00000	4729.35200
3.47435	0.00000	4729.35200
3.47818	0.00000	4729.35200
3.48201	0.00000	4729.35200
3.48584	0.00000	4729.35200
3.48969	0.00000	4729.35200
3.49353	0.00000	4712.31600
3.49738	0.00000	4712.31600
3.50122	0.00000	4712.31600
3.50506	0.00000	4712.31600
3.50890	0.00000	4712.31600
3.51272	0.00000	4712.31600
3.51656	0.00000	4760.04500
3.52039	0.00000	4760.04500
3.52423	0.00000	4760.04500
3.52806	0.00000	4760.04500
3.53190	0.00000	4760.04500
3.53574	0.00000	4760.04500
3.53957	0.00000	4712.31600
3.54344	0.00000	4712.31600
3.54731	0.00000	4712.31600
3.55115	0.00000	4712.31600
3.55498	0.00000	4712.31600
3.55882	0.00000	4695.77200
3.56267	0.00000	4695.77200
3.56651	0.00000	4695.77200
3.57034	0.00000	4695.77200
3.57418	0.00000	4695.77200
3.57801	0.00000	4695.77200
3.58185	0.00000	4776.78500
3.58568	0.00000	4776.78500
3.58951	0.00000	4776.78500
3.59334	0.00000	4776.78500
3.59719	0.00000	4776.78500
3.60102	0.00000	4776.78500
3.60486	0.00000	4715.07300
3.60869	0.00000	4715.07300
3.61253	0.00000	4715.07300
3.61636	0.00000	4715.07300
3.62019	0.00000	4715.07300
3.62402	0.00000	4715.07300
3.62786	0.00000	4771.20500
3.63168	0.00000	4771.20500
3.63551	0.00000	4771.20500
3.63936	0.00000	4771.20500
3.64320	0.00000	4771.20500
3.64704	0.00000	4757.25400
3.65088	0.00000	4757.25400
3.65470	0.00000	4757.25400
3.65854	0.00000	4757.25400
3.66237	0.00000	4757.25400
3.66621	0.00000	4757.25400
3.67005	0.00000	4709.55900
3.67387	0.00000	4709.55900
3.67771	0.00000	4709.55900
3.68156	0.00000	4709.55900
3.68539	0.00000	4709.55900
3.68922	0.00000	4709.55900
3.69305	0.00000	4782.36600
3.69689	0.00000	4782.36600
3.70072	0.00000	4782.36600
3.70455	0.00000	4782.36600
3.70838	0.00000	4782.36600
3.71221	0.00000	4782.36600
3.71605	0.00000	4737.13200
3.71988	0.00000	4737.13200
3.72372	0.00000	4737.13200
3.72756	0.00000	4737.13200
3.73140	0.00000	4737.13200
3.73524	0.00000	4773.99500
3.73906	0.00000	4773.99500
3.74290	0.00000	4773.99500
3.74673	0.00000	4773.99500
3.75058	0.00000	4773.99500
3.75441	0.00000	4773.99500
3.75825	0.00000	4704.04400
3.76208	0.00000	4704.04400
3.76592	0.00000	4704.04400
3.76975	0.00000	4704.04400
3.77357	0.00000	4704.04400
3.77740	0.00000	4704.04400
3.78124	0.00000	4728.86000
3.78509	0.00000	4728.86000
3.78893	0.00000	4728.86000
3.79276	0.00000	4728.86000
3.79659	0.00000	4728.86000
3.80042	0.00000	4728.86000
3.80426	0.00000	4726.10300
3.80809	0.00000	4726.10300
3.81192	0.00000	4726.10300
3.81576	0.00000	4726.10300
3.81959	0.00000	4726.10300
3.82341	0.00000	4726.10300
3.82725	0.00000	4776.78500
3.83109	0.00000	4776.78500
3.83493	0.00000	4776.78500
3.83876	0.00000	4776.78500
3.84261	0.00000	4776.78500
3.84645	0.00000	4701.28600
3.85031	0.00000	4701.28600
3.85415	0.00000	4701.28600
3.85799	0.00000	4701.28600
3.86184	0.00000	4701.28600
3.86569	0.00000	4701.28600
3.86952	0.00000	4709.55900
3.87337	0.00000	4709.55900
3.87720	0.00000	4709.55900
3.88106	0.00000	4709.55900
3.88490	0.00000	4709.55900
3.88873	0.00000	4709.55900
3.89257	0.00000	4728.86000
3.89641	0.00000	4728.86000
3.90025	0.00000	4728.86000
3.90408	0.00000	4728.86000
3.90791	0.00000	4728.86000
3.91173	0.00000	4728.86000
3.91557	0.00000	4734.37500
3.91941	0.00000	4734.37500
3.92325	0.00000	4734.37500
3.92709	0.00000	4734.37500
3.93092	0.00000	4734.37500
3.93476	0.00000	4754.46400
3.93861	0.00000	4754.46400
3.94244	0.00000	4754.46400
3.94627	0.00000	4754.46400
3.95010	0.00000	4754.46400
3.95395	0.00000	4754.46400
3.95779	0.00000	4712.31600
3.96162	0.00000	4712.31600
3.96545	0.00000	4712.31600
3.96927	0.00000	4712.31600
3.97311	0.00000	4712.31600
3.97694	0.00000	4712.31600
3.98077	0.00000	4785.15600
3.98461	0.00000	4785.15600
3.98844	0.00000	4785.15600
3.99226	0.00000	4785.15600
3.99609	0.00000	4785.15600
3.99992	0.00000	4785.15600
4.00376	0.00000	4726.10300
4.00759	0.00000	4726.10300
4.01142	0.00000	4726.10300
4.01526	0.00000	4726.10300
4.01909	0.00000	4726.10300
4.02292	0.00000	4765.62500
4.02674	0.00000	4765.62500
4.03057	0.00000	4765.62500
4.03441	0.00000	4765.62500
4.03824	0.00000	4765.62500
4.04206	0.00000	4765.62500
4.04586	0.00000	4706.80200
4.04970	0.00000	4706.80200
4.05354	0.00000	4706.80200
4.05738	0.00000	4706.80200
4.06122	0.00000	4706.80200
4.06506	0.00000	4706.80200
4.06890	0.00000	4728.86000
4.07275	0.00000	4728.86000
4.07658	0.00000	4728.86000
4.08042	0.00000	4728.86000
4.08427	0.00000	4728.86000
4.08811	0.00000	4728.86000
4.09194	0.00000	4728.86000
4.09578	0.00000	4728.86000
4.09962	0.00000	4728.86000
4.10344	0.00000	4728.86000
4.10728	0.00000	4728.86000
4.11113	0.00000	4728.86000
4.11496	0.00000	4734.37500
4.11879	0.00000	4734.37500
4.12262	0.00000	4734.37500
4.12646	0.00000	4734.37500
4.13028	0.00000	4734.37500
4.13412	0.00000	4698.52900
4.13796	0.00000	4698.52900
4.14180	0.00000	4698.52900
4.14564	0.00000	4698.52900
4.14947	0.00000	4698.52900
4.15331	0.00000	4698.52900
4.15715	0.00000	4734.37500
4.16099	0.00000	4734.37500
4.16483	0.00000	4734.37500
4.16866	0.00000	4734.37500
4.17250	0.00000	4734.37500
4.17634	0.00000	4734.37500
4.18018	0.00000	4734.37500
4.18402	0.00000	4734.37500
4.18786	0.00000	4734.37500
4.19169	0.00000	4734.37500
4.19553	0.00000	4734.37500
4.19937	0.00000	4734.37500
4.20320	0.00000	4750.91900
4.20703	0.00000	4750.91900
4.21087	0.00000	4750.91900
4.21470	0.00000	4750.91900
4.21854	0.00000	4750.91900
4.22236	0.00000	4695.77200
4.22619	0.00000	4695.77200
4.23003	0.00000	4695.77200
4.23385	0.00000	4695.77200
4.23770	0.00000	4695.77200
4.24153	0.00000	4695.77200
4.24536	0.00000	4768.41500
4.24920	0.00000	4768.41500
4.25303	0.00000	4768.41500
4.25689	0.00000	4768.41500
4.26073	0.00000	4768.41500
4.26457	0.00000	4768.41500
4.26840	0.00000	4728.86000
4.27224	0.00000	4728.86000
4.27608	0.00000	4728.86000
4.27991	0.00000	4728.86000
4.28375	0.00000	4728.86000
4.28758	0.00000	4728.86000
4.29141	0.00000	4734.37500
4.29524	0.00000	4734.37500
4.29908	0.00000	4734.37500
4.30292	0.00000	4734.37500
4.30675	0.00000	4734.37500
4.31059	0.00000	4734.37500
4.31442	0.00000	4726.10300
4.31825	0.00000	4726.10300
4.32209	0.00000	4726.10300
4.32593	0.00000	4726.10300
4.32976	0.00000	4726.10300
4.33359	0.00000	4760.04500
4.33743	0.00000	4760.04500
4.34126	0.00000	4760.04500
4.34510	0.00000	4760.04500
4.34894	0.00000	4760.04500
4.35278	0.00000	4760.04500
4.35661	0.00000	4742.64700
4.36045	0.00000	4742.64700
4.36429	0.00000	4742.64700
4.36812	0.00000	4742.64700
4.37195	0.00000	4742.64700
4.37578	0.00000	4742.64700
4.37961	0.00000	4745.40400
4.38344	0.00000	4745.40400
4.38728	0.00000	4745.40400
4.39112	0.00000	4745.40400
4.39495	0.00000	4745.40400
4.39878	0.00000	4745.40400
4.40261	0.00000	4728.86000
4.40644	0.00000	4728.86000
4.41028	0.00000	4728.86000
4.41411	0.00000	4728.86000
4.41794	0.00000	4728.86000
4.42178	0.00000	4746.09400
4.42560	0.00000	4746.09400
4.42942	0.00000	4746.09400
4.43326	0.00000	4746.09400
4.43709	0.00000	4746.09400
4.44092	0.00000	4746.09400
4.44476	0.00000	4704.04400
4.44860	0.00000	4704.04400
4.45243	0.00000	4704.04400
4.45625	0.00000	4704.04400
4.46009	0.00000	4704.04400
4.46394	0.00000	4704.04400
4.46777	0.00000	4726.10300
4.47161	0.00000	4726.10300
4.47545	0.00000	4726.10300
4.47929	0.00000	4726.10300
4.48314	0.00000	4726.10300
4.48697	0.00000	4726.10300
4.49081	0.00000	4745.40400
4.49465	0.00000	4745.40400
4.49848	0.00000	4745.40400
4.50231	0.00000	4745.40400
4.50614	0.00000	4745.40400
4.50998	0.00000	4745.40400
4.51380	0.00000	4768.41500
4.51764	0.00000	4768.41500
4.52147	0.00000	4768.41500
4.52531	0.00000	4768.41500
4.52914	0.00000	4768.41500
4.53298	0.00000	4712.31600
4.53682	0.00000	4712.31600
4.54066	0.00000	4712.31600
4.54449	0.00000	4712.31600
4.54832	0.00000	4712.31600
4.55215	0.00000	4712.31600
4.55598	0.00000	4687.50000
4.55983	0.00000	4687.50000
4.56367	0.00000	4687.50000
4.56750	0.00000	4687.50000
4.57133	0.00000	4687.50000
4.57517	0.00000	4687.50000
4.57902	0.00000	4734.37500
4.58285	0.00000	4734.37500
4.58668	0.00000	4734.37500
4.59052	0.00000	4734.37500
4.59435	0.00000	4734.37500
4.59819	0.00000	4734.37500
4.60202	0.00000	4723.34500
4.60586	0.00000	4723.34500
4.60969	0.00000	4723.34500
4.61352	0.00000	4723.34500
4.61736	0.00000	4723.34500
4.62119	0.00000	4698.52900
4.62502	0.00000	4698.52900
4.62886	0.00000	4698.52900
4.63270	0.00000	4698.52900
4.63654	0.00000	4698.52900
4.64037	0.00000	4698.52900
4.64420	0.00000	4793.52700
4.64803	0.00000	4793.52700
4.65188	0.00000	4793.52700
4.65572	0.00000	4793.52700
4.65955	0.00000	4793.52700
4.66339	0.00000	4793.52700
4.66724	0.00000	4731.61700
4.67107	0.00000	4731.61700
4.67492	0.00000	4731.61700
4.67876	0.00000	4731.61700
4.68261	0.00000	4731.61700
4.68643	0.00000	4731.61700
4.69027	0.00000	4742.64700
4.69411	0.00000	4742.64700
4.69794	0.00000	4742.64700
4.70177	0.00000	4742.64700
4.70561	0.00000	4742.64700
4.70944	0.00000	4742.64700
4.71327	0.00000	4773.99500
4.71711	0.00000	4773.99500
4.72094	0.00000	4773.99500
4.72479	0.00000	4773.99500
4.72862	0.00000	4773.99500
4.73246	0.00000	4712.31600
4.73630	0.00000	4712.31600
4.74014	0.00000	4712.31600
4.74397	0.00000	4712.31600
4.74780	0.00000	4712.31600
4.75164	0.00000	4712.31600
4.75548	0.00000	4728.86000
4.75931	0.00000	4728.86000
4.76314	0.00000	4728.86000
4.76698	0.00000	4728.86000
4.77081	0.00000	4728.86000
4.77464	0.00000	4728.86000
4.77848	0.00000	4728.86000
4.78231	0.00000	4728.86000
4.78615	0.00000	4728.86000
4.78998	0.00000	4728.86000
4.79381	0.00000	4728.86000
4.79766	0.00000	4728.86000
4.80149	0.00000	4684.77500
4.80533	0.00000	4684.77500
4.80916	0.00000	4684.77500
4.81301	0.00000	4684.77500
4.81685	0.00000	4684.77500
4.82069	0.00000	4709.55900
4.82454	0.00000	4709.55900
4.82838	0.00000	4709.55900
4.83221	0.00000	4709.55900
4.83605	0.00000	4709.55900
4.83988	0.00000	4709.55900
4.84376	0.00000	4734.37500
4.84759	0.00000	4734.37500
4.85143	0.00000	4734.37500
4.85527	0.00000	4734.37500
4.85911	0.00000	4734.37500
4.86296	0.00000	4734.37500
4.86679	0.00000	4745.40400
4.87064	0.00000	4745.40400
4.87449	0.00000	4745.40400
4.87832	0.00000	4745.40400
4.88216	0.00000	4745.40400
4.88598	0.00000	4745.40400
4.88982	0.00000	4748.16100
4.89366	0.00000	4748.16100
4.89750	0.00000	4748.16100
4.90133	0.00000	4748.16100
4.90517	0.00000	4748.16100
4.90901	0.00000	4771.20500
4.91283	0.00000	4771.20500
4.91666	0.00000	4771.20500
4.92049	0.00000	4771.20500
4.92434	0.00000	4771.20500
4.92817	0.00000	4771.20500
4.93201	0.00000	4723.34500
4.93584	0.00000	4723.34500
4.93968	0.00000	4723.34500
4.94352	0.00000	4723.34500
4.94736	0.00000	4723.34500
4.95121	0.00000	4723.34500
4.95505	0.00000	4742.64700
4.95888	0.00000	4742.64700
4.96271	0.00000	4742.64700
4.96655	0.00000	4742.64700
4.97038	0.00000	4742.64700
4.97422	0.00000	4742.64700
4.97806	0.00000	4745.40400
4.98186	0.00000	4745.40400
4.98571	0.00000	4745.40400
4.98953	0.00000	4745.40400
4.99336	0.00000	4745.40400
4.99720	0.00000	4745.40400
5.00156	0.00000	4731.61700
5.00544	0.00000	4731.61700
5.00929	0.00000	4731.61700
5.01315	0.00000	4731.61700
5.01701	0.00000	4731.61700
5.02086	0.00000	4850.18400
5.02473	0.00000	4850.18400
5.02857	0.00000	4850.18400
5.03246	0.00000	4850.18400
5.03643	0.00000	4850.18400
5.04030	0.00000	4850.18400
5.04414	0.00000	5014.59400
5.04799	0.00000	5014.59400
5.05185	0.00000	5014.59400
5.05571	0.00000	5014.59400
5.05957	0.00000	5014.59400
5.06341	0.00000	5014.59400
5.06726	0.00000	5014.59400
5.07110	0.00000	5208.05900
5.07494	0.00000	5208.05900
5.07878	0.00000	5208.05900
5.08263	0.00000	5208.05900
5.08646	0.00000	5208.05900
5.09030	0.00000	5208.05900
5.09415	0.00000	5356.79800
5.09798	0.00000	5356.79800
5.10182	0.00000	5356.79800
5.10568	0.00000	5356.79800
5.10953	0.00000	5356.79800
5.11336	0.00000	5356.79800
5.11720	0.00000	5356.79800
5.12104	0.00000	5395.31200
5.12489	0.00000	5395.31200
5.12874	0.00000	5395.31200
5.13257	0.00000	5395.31200
5.13640	0.00000	5395.31200
5.14024	0.00000	5395.31200
5.14408	0.00000	5395.31200
5.14794	0.00000	5454.96300
5.15178	0.00000	5454.96300
5.15562	0.00000	5454.96300
5.15946	0.00000	5454.96300
5.16329	0.00000	5454.96300
5.16713	0.00000	5454.96300
5.17097	0.00000	5454.96300
5.17480	0.00000	5495.29700
5.17866	0.00000	5495.29700
5.18249	0.00000	5495.29700
5.18633	0.00000	5495.29700
5.19017	0.00000	5495.29700
5.19401	0.00000	5495.29700
5.19784	0.00000	5495.29700
5.20169	0.00000	5507.81200
5.20553	0.00000	5507.81200
5.20938	0.00000	5507.81200
5.21322	0.00000	5507.81200
5.21706	0.00000	5507.81200
5.22090	0.00000	5507.81200
5.22473	0.00000	5507.81200
5.22858	0.00000	5555.13800
5.23244	0.00000	5555.13800
5.23628	0.00000	5555.13800
5.24013	0.00000	5555.13800
5.24396	0.00000	5555.13800
5.24779	0.00000	5555.13800
5.25162	0.00000	5555.13800
5.25547	0.00000	5533.48200
5.25933	0.00000	5533.48200
5.26317	0.00000	5533.48200
5.26701	0.00000	5533.48200
5.27084	0.00000	5533.48200
5.27468	0.00000	5533.48200
5.27853	0.00000	5533.48200
5.28236	0.00000	5546.87500
5.28618	0.00000	5546.87500
5.29002	0.00000	5546.87500
5.29386	0.00000	5546.87500
5.29770	0.00000	5546.87500
5.30155	0.00000	5546.87500
5.30538	0.00000	5546.87500
5.30921	0.00000	5546.87500
5.31305	0.00000	5569.19700
5.31690	0.00000	5569.19700
5.32073	0.00000	5569.19700
5.32456	0.00000	5569.19700
5.32840	0.00000	5569.19700
5.33224	0.00000	5569.19700
5.33607	0.00000	5569.19700
5.33991	0.00000	5575.89200
5.34375	0.00000	5575.89200
5.34758	0.00000	5575.89200
5.35142	0.00000	5575.89200
5.35527	0.00000	5575.89200
5.35911	0.00000	5575.89200
5.36295	0.00000	5575.89200
5.36679	0.00000	5584.82100
5.37063	0.00000	5584.82100
5.37447	0.00000	5584.82100
5.37831	0.00000	5584.82100
5.38215	0.00000	5584.82100
5.38598	0.00000	5584.82100
5.38983	0.00000	5584.82100
5.39368	0.00000	5582.58900
5.39752	0.00000	5582.58900
5.40136	0.00000	5582.58900
5.40519	0.00000	5582.58900
5.40902	0.00000	5582.58900
5.41287	0.00000	5582.58900
5.41670	0.00000	5582.58900
5.42054	0.00000	5584.82100
5.42438	0.00000	5584.82100
5.42823	0.00000	5584.82100
5.43206	0.00000	5584.82100
5.43591	0.00000	5584.82100
5.43975	0.00000	5584.82100
5.44359	0.00000	5584.82100
5.44743	0.00000	5593.75000
5.45127	0.00000	5593.75000
5.45511	0.00000	5593.75000
5.45895	0.00000	5593.75000
5.46279	0.00000	5593.75000
5.46663	0.00000	5593.75000
5.47047	0.00000	5593.75000
5.47431	0.00000	5598.21400
5.47816	0.00000	5598.21400
5.48200	0.00000	5598.21400
5.48583	0.00000	5598.21400
5.48968	0.00000	5598.21400
5.49353	0.00000	5598.21400
5.49736	0.00000	5598.21400
5.50120	0.00000	5598.21400
5.50504	0.00000	5554.24500
5.50888	0.00000	5554.24500
5.51272	0.00000	5554.24500
5.51655	0.00000	5554.24500
5.52040	0.00000	5554.24500
5.52424	0.00000	5554.24500
5.52808	0.00000	5554.24500
5.53193	0.00000	5595.98200
5.53576	0.00000	5595.98200
5.53960	0.00000	5595.98200
5.54344	0.00000	5595.98200
5.54727	0.00000	5595.98200
5.55112	0.00000	5595.98200
5.55496	0.00000	5595.98200
5.55880	0.00000	5600.44700
5.56264	0.00000	5600.44700
5.56648	0.00000	5600.44700
5.57031	0.00000	5600.44700
5.57414	0.00000	5600.44700
5.57798	0.00000	5600.44700
5.58184	0.00000	5600.44700
5.58568	0.00000	5593.75000
5.58952	0.00000	5593.75000
5.59336	0.00000	5593.75000
5.59720	0.00000	5593.75000
5.60103	0.00000	5593.75000
5.60487	0.00000	5593.75000
5.60869	0.00000	5593.75000
5.61254	0.00000	5600.44700
5.61637	0.00000	5600.44700
5.62021	0.00000	5600.44700
5.62404	0.00000	5600.44700
5.62788	0.00000	5600.44700
5.63172	0.00000	5600.44700
5.63555	0.00000	5600.44700
5.63940	0.00000	5543.19000
5.64326	0.00000	5543.19000
5.64709	0.00000	5543.19000
5.65093	0.00000	5543.19000
5.65477	0.00000	5543.19000
5.65861	0.00000	5543.19000
5.66245	0.00000	5543.19000
5.66629	0.00000	5540.97900
5.67013	0.00000	5540.97900
5.67397	0.00000	5540.97900
5.67780	0.00000	5540.97900
5.68165	0.00000	5540.97900
5.68549	0.00000	5540.97900
5.68933	0.00000	5540.97900
5.69317	0.00000	5540.97900
5.69701	0.00000	5598.21400
5.70084	0.00000	5598.21400
5.70468	0.00000	5598.21400
5.70852	0.00000	5598.21400
5.71236	0.00000	5598.21400
5.71620	0.00000	5598.21400
5.72003	0.00000	5598.21400
5.72387	0.00000	5593.75000
5.72771	0.00000	5593.75000
5.73155	0.00000	5593.75000
5.73538	0.00000	5593.75000
5.73922	0.00000	5593.75000
5.74306	0.00000	5593.75000
5.74691	0.00000	5593.75000
5.75074	0.00000	5595.98200
5.75458	0.00000	5595.98200
5.75842	0.00000	5595.98200
5.76227	0.00000	5595.98200
5.76610	0.00000	5595.98200
5.76994	0.00000	5595.98200
5.77379	0.00000	5595.98200
5.77763	0.00000	5589.28500
5.78148	0.00000	5589.28500
5.78532	0.00000	5589.28500
5.78918	0.00000	5589.28500
5.79302	0.00000	5589.28500
5.79686	0.00000	5589.28500
5.80069	0.00000	5589.28500
5.80453	0.00000	5593.75000
5.80838	0.00000	5593.75000
5.81222	0.00000	5593.75000
5.81605	0.00000	5593.75000
5.81989	0.00000	5593.75000
5.82373	0.00000	5593.75000
5.82756	0.00000	5593.75000
5.83140	0.00000	5534.34500
5.83525	0.00000	5534.34500
5.83909	0.00000	5534.34500
5.84294	0.00000	5534.34500
5.84678	0.00000	5534.34500
5.85061	0.00000	5534.34500
5.85445	0.00000	5534.34500
5.85829	0.00000	5538.76800
5.86215	0.00000	5538.76800
5.86598	0.00000	5538.76800
5.86982	0.00000	5538.76800
5.87366	0.00000	5538.76800
5.87751	0.00000	5538.76800
5.88134	0.00000	5538.76800
5.88518	0.00000	5538.76800
5.88902	0.00000	5538.76800
5.89286	0.00000	5538.76800
5.89670	0.00000	5538.76800
5.90054	0.00000	5538.76800
5.90437	0.00000	5538.76800
5.90821	0.00000	5538.76800
5.91205	0.00000	5538.76800
5.91589	0.00000	5587.05300
5.91973	0.00000	5587.05300
5.92356	0.00000	5587.05300
5.92740	0.00000	5587.05300
5.93123	0.00000	5587.05300
5.93507	0.00000	5587.05300
5.93891	0.00000	5587.05300
5.94275	0.00000	5589.28500
5.94658	0.00000	5589.28500
5.95042	0.00000	5589.28500
5.95426	0.00000	5589.28500
5.95810	0.00000	5589.28500
5.96194	0.00000	5589.28500
5.96577	0.00000	5589.28500
5.96961	0.00000	5593.75000
5.97345	0.00000	5593.75000
5.97728	0.00000	5593.75000
5.98113	0.00000	5593.75000
5.98497	0.00000	5593.75000
5.98882	0.00000	5593.75000
5.99265	0.00000	5593.75000
5.99650	0.00000	5593.75000
6.00034	0.00000	5593.75000
6.00418	0.00000	5593.75000
6.00802	0.00000	5593.75000
6.01186	0.00000	5593.75000
6.01569	0.00000	5593.75000
6.01953	0.00000	5593.75000
6.02337	0.00000	5587.05300
6.02721	0.00000	5587.05300
6.03106	0.00000	5587.05300
6.03489	0.00000	5587.05300
6.03873	0.00000	5587.05300
6.04258	0.00000	5587.05300
6.04642	0.00000	5587.05300
6.05026	0.00000	5591.51800
6.05408	0.00000	5591.51800
6.05793	0.00000	5591.51800
6.06177	0.00000	5591.51800
6.06561	0.00000	5591.51800
6.06946	0.00000	5591.51800
6.07330	0.00000	5591.51800
6.07714	0.00000	5591.51800
6.08099	0.00000	5540.97900
6.08483	0.00000	5540.97900
6.08867	0.00000	5540.97900
6.09251	0.00000	5540.97900
6.09636	0.00000	5540.97900
6.10019	0.00000	5540.97900
6.10403	0.00000	5540.97900
6.10787	0.00000	5538.76800
6.11171	0.00000	5538.76800
6.11555	0.00000	5538.76800
6.11939	0.00000	5538.76800
6.12322	0.00000	5538.76800
6.12706	0.00000	5538.76800
6.13090	0.00000	5538.76800
6.13474	0.00000	5534.34500
6.13858	0.00000	5534.34500
6.14242	0.00000	5534.34500
6.14626	0.00000	5534.34500
6.15009	0.00000	5534.34500
6.15393	0.00000	5534.34500
6.15777	0.00000	5534.34500
6.16161	0.00000	5538.76800
6.16546	0.00000	5538.76800
6.16931	0.00000	5538.76800
6.17317	0.00000	5538.76800
6.17701	0.00000	5538.76800
6.18086	0.00000	5538.76800
6.18470	0.00000	5538.76800
6.18854	0.00000	5591.51800
6.19238	0.00000	5591.51800
6.19622	0.00000	5591.51800
6.20006	0.00000	5591.51800
6.20391	0.00000	5591.51800
6.20776	0.00000	5591.51800
6.21160	0.00000	5591.51800
6.21543	0.00000	5591.51800
6.21927	0.00000	5591.51800
6.22311	0.00000	5591.51800
6.22694	0.00000	5591.51800
6.23078	0.00000	5591.51800
6.23463	0.00000	5591.51800
6.23846	0.00000	5591.51800
6.24231	0.00000	5595.98200
6.24614	0.00000	5595.98200
6.24998	0.00000	5595.98200
6.25382	0.00000	5595.98200
6.25766	0.00000	5595.98200
6.26152	0.00000	5595.98200
6.26540	0.00000	5595.98200
6.26926	0.00000	5595.98200
6.27310	0.00000	5589.28500
6.27695	0.00000	5589.28500
6.28078	0.00000	5589.28500
6.28461	0.00000	5589.28500
6.28845	0.00000	5589.28500
6.29228	0.00000	5589.28500
6.29611	0.00000	5589.28500
6.29995	0.00000	5540.97900
6.30381	0.00000	5540.97900
6.30764	0.00000	5540.97900
6.31148	0.00000	5540.97900
6.31532	0.00000	5540.97900
6.31917	0.00000	5540.97900
6.32300	0.00000	5540.97900
6.32684	0.00000	5534.34500
6.33068	0.00000	5534.34500
6.33451	0.00000	5534.34500
6.33837	0.00000	5534.34500
6.34222	0.00000	5534.34500
6.34606	0.00000	5534.34500
6.34986	0.00000	5534.34500
6.35370	0.00000	5543.19000
6.35754	0.00000	5543.19000
6.36138	0.00000	5543.19000
6.36522	0.00000	5543.19000
6.36906	0.00000	5543.19000
6.37289	0.00000	5543.19000
6.37673	0.00000	5543.19000
6.38058	0.00000	5538.76800
6.38441	0.00000	5538.76800
6.38825	0.00000	5538.76800
6.39208	0.00000	5538.76800
6.39591	0.00000	5538.76800
6.39975	0.00000	5538.76800
6.40359	0.00000	5538.76800
6.40743	0.00000	5538.76800
6.41130	0.00000	5538.76800
6.41514	0.00000	5538.76800
6.41898	0.00000	5538.76800
6.42282	0.00000	5538.76800
6.42665	0.00000	5538.76800
6.43049	0.00000	5538.76800
6.43433	0.00000	5534.34500
6.43816	0.00000	5534.34500
6.44200	0.00000	5534.34500
6.44583	0.00000	5534.34500
6.44968	0.00000	5534.34500
6.45351	0.00000	5534.34500
6.45735	0.00000	5534.34500
6.46119	0.00000	5534.34500
6.46503	0.00000	5604.91000
6.46888	0.00000	5604.91000
6.47272	0.00000	5604.91000
6.47656	0.00000	5604.91000
6.48040	0.00000	5604.91000
6.48423	0.00000	5604.91000
6.48807	0.00000	5604.91000
6.49192	0.00000	5591.51800
6.49576	0.00000	5591.51800
6.49960	0.00000	5591.51800
6.50343	0.00000	5591.51800
6.50727	0.00000	5591.51800
6.51111	0.00000	5591.51800
6.51496	0.00000	5591.51800
6.51879	0.00000	5589.28500
6.52263	0.00000	5589.28500
6.52647	0.00000	5589.28500
6.53032	0.00000	5589.28500
6.53416	0.00000	5589.28500
6.53799	0.00000	5589.28500
6.54183	0.00000	5589.28500
6.54568	0.00000	5538.76800
6.54952	0.00000	5538.76800
6.55336	0.00000	5538.76800
6.55719	0.00000	5538.76800
6.56104	0.00000	5538.76800
6.56487	0.00000	5538.76800
6.56871	0.00000	5538.76800
6.57254	0.00000	5534.34500
6.57638	0.00000	5534.34500
6.58022	0.00000	5534.34500
6.58406	0.00000	5534.34500
6.58790	0.00000	5534.34500
6.59173	0.00000	5534.34500
6.59557	0.00000	5534.34500
6.59941	0.00000	5540.97900
6.60327	0.00000	5540.97900
6.60710	0.00000	5540.97900
6.61094	0.00000	5540.97900
6.61477	0.00000	5540.97900
6.61861	0.00000	5540.97900
6.62245	0.00000	5540.97900
6.62629	0.00000	5529.92300
6.63015	0.00000	5529.92300
6.63399	0.00000	5529.92300
6.63783	0.00000	5529.92300
6.64167	0.00000	5529.92300
6.64550	0.00000	5529.92300
6.64933	0.00000	5529.92300
6.65317	0.00000	5529.92300
6.65700	0.00000	5538.76800
6.66084	0.00000	5538.76800
6.66469	0.00000	5538.76800
6.66857	0.00000	5538.76800
6.67243	0.00000	5538.76800
6.67628	0.00000	5538.76800
6.68015	0.00000	5538.76800
6.68398	0.00000	5580.35700
6.68783	0.00000	5580.35700
6.69167	0.00000	5580.35700
6.69551	0.00000	5580.35700
6.69935	0.00000	5580.35700
6.70320	0.00000	5580.35700
6.70703	0.00000	5580.35700
6.71088	0.00000	5587.05300
6.71472	0.00000	5587.05300
6.71856	0.00000	5587.05300
6.72240	0.00000	5587.05300
6.72623	0.00000	5587.05300
6.73007	0.00000	5587.05300
6.73392	0.00000	5587.05300
6.73776	0.00000	5580.35700
6.74160	0.00000	5580.35700
6.74544	0.00000	5580.35700
6.74928	0.00000	5580.35700
6.75312	0.00000	5580.35700
6.75695	0.00000	5580.35700
6.76079	0.00000	5580.35700
6.76464	0.00000	5575.89200
6.76848	0.00000	5575.89200
6.77231	0.00000	5575.89200
6.77615	0.00000	5575.89200
6.78000	0.00000	5575.89200
6.78383	0.00000	5575.89200
6.78768	0.00000	5575.89200
6.79152	0.00000	5525.50100
6.79535	0.00000	5525.50100
6.79919	0.00000	5525.50100
6.80304	0.00000	5525.50100
6.80687	0.00000	5525.50100
6.81072	0.00000	5525.50100
6.81456	0.00000	5525.50100
6.81840	0.00000	5529.92300
6.82224	0.00000	5529.92300
6.82608	0.00000	5529.92300
6.82992	0.00000	5529.92300
6.83375	0.00000	5529.92300
6.83759	0.00000	5529.92300
6.84143	0.00000	5529.92300
6.84527	0.00000	5527.71200
6.84910	0.00000	5527.71200
6.85294	0.00000	5527.71200
6.85678	0.00000	5527.71200
6.86062	0.00000	5527.71200
6.86446	0.00000	5527.71200
6.86831	0.00000	5527.71200
6.87215	0.00000	5527.71200
6.87598	0.00000	5529.92300
6.87982	0.00000	5529.92300
6.88365	0.00000	5529.92300
6.88749	0.00000	5529.92300
6.89133	0.00000	5529.92300
6.89517	0.00000	5529.92300
6.89900	0.00000	5529.92300
6.90283	0.00000	5582.58900
6.90668	0.00000	5582.58900
6.91051	0.00000	5582.58900
6.91434	0.00000	5582.58900
6.91817	0.00000	5582.58900
6.92201	0.00000	5582.58900
6.92585	0.00000	5582.58900
6.92971	0.00000	5529.92300
6.93354	0.00000	5529.92300
6.93738	0.00000	5529.92300
6.94123	0.00000	5529.92300
6.94507	0.00000	5529.92300
6.94892	0.00000	5529.92300
6.95276	0.00000	5529.92300
6.95660	0.00000	5532.13400
6.96045	0.00000	5532.13400
6.96429	0.00000	5532.13400
6.96813	0.00000	5532.13400
6.97197	0.00000	5532.13400
6.97581	0.00000	5532.13400
6.97965	0.00000	5532.13400
6.98348	0.00000	5527.71200
6.98732	0.00000	5527.71200
6.99115	0.00000	5527.71200
6.99499	0.00000	5527.71200
6.99883	0.00000	5527.71200
7.00266	0.00000	5527.71200
7.00650	0.00000	5527.71200
7.01033	0.00000	5527.71200
7.01418	0.00000	5527.71200
7.01801	0.00000	5527.71200
7.02185	0.00000	5527.71200
7.02570	0.00000	5527.71200
7.02954	0.00000	5527.71200
7.03338	0.00000	5527.71200
7.03724	0.00000	5532.13400
7.04108	0.00000	5532.13400
7.04492	0.00000	5532.13400
7.04875	0.00000	5532.13400
7.05260	0.00000	5532.13400
7.05644	0.00000	5532.13400
7.06029	0.00000	5532.13400
7.06412	0.00000	5532.13400
7.06796	0.00000	5534.34500
7.07180	0.00000	5534.34500
7.07565	0.00000	5534.34500
7.07949	0.00000	5534.34500
7.08333	0.00000	5534.34500
7.08716	0.00000	5534.34500
7.09101	0.00000	5534.34500
7.09485	0.00000	5580.35700
7.09869	0.00000	5580.35700
7.10252	0.00000	5580.35700
7.10636	0.00000	5580.35700
7.11019	0.00000	5580.35700
7.11402	0.00000	5580.35700
7.11786	0.00000	5580.35700
7.12170	0.00000	5573.66000
7.12554	0.00000	5573.66000
7.12938	0.00000	5573.66000
7.13322	0.00000	5573.66000
7.13705	0.00000	5573.66000
7.14089	0.00000	5573.66000
7.14473	0.00000	5573.66000
7.14857	0.00000	5525.50100
7.15242	0.00000	5525.50100
7.15626	0.00000	5525.50100
7.16010	0.00000	5525.50100
7.16393	0.00000	5525.50100
7.16776	0.00000	5525.50100
7.17161	0.00000	5525.50100
7.17544	0.00000	5516.65600
7.17927	0.00000	5516.65600
7.18312	0.00000	5516.65600
7.18698	0.00000	5516.65600
7.19081	0.00000	5516.65600
7.19465	0.00000	5516.65600
7.19848	0.00000	5516.65600
7.20233	0.00000	5569.19700
7.20616	0.00000	5569.19700
7.20999	0.00000	5569.19700
7.21383	0.00000	5569.19700
7.21769	0.00000	5569.19700
7.22153	0.00000	5569.19700
7.22537	0.00000	5569.19700
7.22921	0.00000	5575.89200
7.23306	0.00000	5575.89200
7.23690	0.00000	5575.89200
7.24074	0.00000	5575.89200
7.24457	0.00000	5575.89200
7.24841	0.00000	5575.89200
7.25226	0.00000	5575.89200
7.25610	0.00000	5580.35700
7.25993	0.00000	5580.35700
7.26377	0.00000	5580.35700
7.26761	0.00000	5580.35700
7.27144	0.00000	5580.35700
7.27527	0.00000	5580.35700
7.27912	0.00000	5580.35700
7.28296	0.00000	5580.35700
7.28680	0.00000	5571.42800
7.29064	0.00000	5571.42800
7.29448	0.00000	5571.42800
7.29832	0.00000	5571.42800
7.30216	0.00000	5571.42800
7.30600	0.00000	5571.42800
7.30984	0.00000	5571.42800
7.31369	0.00000	5569.19700
7.31754	0.00000	5569.19700
7.32138	0.00000	5569.19700
7.32521	0.00000	5569.19700
7.32905	0.00000	5569.19700
7.33290	0.00000	5569.19700
7.33673	0.00000	5569.19700
7.34058	0.00000	5571.42800
7.34442	0.00000	5571.42800
7.34826	0.00000	5571.42800
7.35210	0.00000	5571.42800
7.35594	0.00000	5571.42800
7.35977	0.00000	5571.42800
7.36361	0.00000	5571.42800
7.36745	0.00000	5566.96400
7.37131	0.00000	5566.96400
7.37514	0.00000	5566.96400
7.37898	0.00000	5566.96400
7.38282	0.00000	5566.96400
7.38666	0.00000	5566.96400
7.39049	0.00000	5566.96400
7.39433	0.00000	5564.73200
7.39817	0.00000	5564.73200
7.40201	0.00000	5564.73200
7.40585	0.00000	5564.73200
7.40971	0.00000	5564.73200
7.41355	0.00000	5564.73200
7.41738	0.00000	5564.73200
7.42122	0.00000	5566.96400
7.42507	0.00000	5566.96400
7.42890	0.00000	5566.96400
7.43275	0.00000	5566.96400
7.43658	0.00000	5566.96400
7.44043	0.00000	5566.96400
7.44427	0.00000	5566.96400
7.44811	0.00000	5569.19700
7.45199	0.00000	5569.19700
7.45582	0.00000	5569.19700
7.45965	0.00000	5569.19700
7.46350	0.00000	5569.19700
7.46734	0.00000	5569.19700
7.47119	0.00000	5569.19700
7.47502	0.00000	5566.96400
7.47885	0.00000	5566.96400
7.48269	0.00000	5566.96400
7.48653	0.00000	5566.96400
7.49036	0.00000	5566.96400
7.49420	0.00000	5566.96400
7.49804	0.00000	5566.96400
7.50186	0.00000	5566.96400
7.50569	0.00000	5564.73200
7.50955	0.00000	5564.73200
7.51338	0.00000	5564.73200
7.51722	0.00000	5564.73200
7.52105	0.00000	5564.73200
7.52490	0.00000	5564.73200
7.52875	0.00000	5564.73200
7.53262	0.00000	5566.96400
7.53648	0.00000	5566.96400
7.54032	0.00000	5566.96400
7.54417	0.00000	5566.96400
7.54801	0.00000	5566.96400
7.55185	0.00000	5566.96400
7.55569	0.00000	5566.96400
7.55953	0.00000	5512.23400
7.56337	0.00000	5512.23400
7.56721	0.00000	5512.23400
7.57105	0.00000	5512.23400
7.57489	0.00000	5512.23400
7.57872	0.00000	5512.23400
7.58255	0.00000	5512.23400
7.58639	0.00000	5564.73200
7.59023	0.00000	5564.73200
7.59408	0.00000	5564.73200
7.59792	0.00000	5564.73200
7.60176	0.00000	5564.73200
7.60560	0.00000	5564.73200
7.60944	0.00000	5564.73200
7.61327	0.00000	5569.19700
7.61711	0.00000	5569.19700
7.62095	0.00000	5569.19700
7.62478	0.00000	5569.19700
7.62863	0.00000	5569.19700
7.63247	0.00000	5569.19700
7.63632	0.00000	5569.19700
7.64015	0.00000	5560.26800
7.64398	0.00000	5560.26800
7.64782	0.00000	5560.26800
7.65165	0.00000	5560.26800
7.65549	0.00000	5560.26800
7.65932	0.00000	5560.26800
7.66316	0.00000	5560.26800
7.66700	0.00000	5510.02300
7.67085	0.00000	5510.02300
7.67468	0.00000	5510.02300
7.67852	0.00000	5510.02300
7.68236	0.00000	5510.02300
7.68621	0.00000	5510.02300
7.69004	0.00000	5510.02300
7.69386	0.00000	5562.50000
7.69773	0.00000	5562.50000
7.70156	0.00000	5562.50000
7.70540	0.00000	5562.50000
7.70924	0.00000	5562.50000
7.71308	0.00000	5562.50000
7.71693	0.00000	5562.50000
7.72077	0.00000	5562.50000
7.72460	0.00000	5573.66000
7.72844	0.00000	5573.66000
7.73229	0.00000	5573.66000
7.73613	0.00000	5573.66000
7.73998	0.00000	5573.66000
7.74381	0.00000	5573.66000
7.74765	0.00000	5573.66000
7.75148	0.00000	5558.03500
7.75533	0.00000	5558.03500
7.75917	0.00000	5558.03500
7.76301	0.00000	5558.03500
7.76684	0.00000	5558.03500
7.77069	0.00000	5558.03500
7.77454	0.00000	5558.03500
7.77837	0.00000	5560.26800
7.78221	0.00000	5560.26800
7.78606	0.00000	5560.26800
7.78986	0.00000	5560.26800
7.79370	0.00000	5560.26800
7.79754	0.00000	5560.26800
7.80140	0.00000	5560.26800
7.80524	0.00000	5505.60100
7.80907	0.00000	5505.60100
7.81292	0.00000	5505.60100
7.81677	0.00000	5505.60100
7.82060	0.00000	5505.60100
7.82445	0.00000	5505.60100
7.82830	0.00000	5505.60100
7.83213	0.00000	5553.57100
7.83597	0.00000	5553.57100
7.83982	0.00000	5553.57100
7.84366	0.00000	5553.57100
7.84749	0.00000	5553.57100
7.85134	0.00000	5553.57100
7.85518	0.00000	5553.57100
7.85901	0.00000	5555.80300
7.86285	0.00000	5555.80300
7.86669	0.00000	5555.80300
7.87052	0.00000	5555.80300
7.87437	0.00000	5555.80300
7.87821	0.00000	5555.80300
7.88205	0.00000	5555.80300
7.88587	0.00000	5551.33900
7.88971	0.00000	5551.33900
7.89356	0.00000	5551.33900
7.89739	0.00000	5551.33900
7.90123	0.00000	5551.33900
7.90507	0.00000	5551.33900
7.90892	0.00000	5551.33900
7.91276	0.00000	5546.87500
7.91662	0.00000	5546.87500
7.92046	0.00000	5546.87500
7.92429	0.00000	5546.87500
7.92814	0.00000	5546.87500
7.93198	0.00000	5546.87500
7.93582	0.00000	5546.87500
7.93966	0.00000	5542.41000
7.94350	0.00000	5542.41000
7.94735	0.00000	5542.41000
7.95119	0.00000	5542.41000
7.95503	0.00000	5542.41000
7.95886	0.00000	5542.41000
7.96271	0.00000	5542.41000
7.96655	0.00000	5537.94600
7.97038	0.00000	5537.94600
7.97421	0.00000	5537.94600
7.97805	0.00000	5537.94600
7.98186	0.00000	5537.94600
7.98572	0.00000	5537.94600
7.98956	0.00000	5537.94600
7.99339	0.00000	5537.94600
7.99723	0.00000	5540.17800
8.00106	0.00000	5540.17800
8.00490	0.00000	5540.17800
8.00875	0.00000	5540.17800
8.01259	0.00000	5540.17800
8.01642	0.00000	5540.17800
8.02026	0.00000	5540.17800
8.02411	0.00000	5542.41000
8.02795	0.00000	5542.41000
8.03179	0.00000	5542.41000
8.03562	0.00000	5542.41000
8.03946	0.00000	5542.41000
8.04329	0.00000	5542.41000
8.04713	0.00000	5542.41000
8.05097	0.00000	5537.94600
8.05480	0.00000	5537.94600
8.05864	0.00000	5537.94600
8.06248	0.00000	5537.94600
8.06631	0.00000	5537.94600
8.07015	0.00000	5537.94600
8.07400	0.00000	5537.94600
8.07784	0.00000	5542.41000
8.08169	0.00000	5542.41000
8.08553	0.00000	5542.41000
8.08937	0.00000	5542.41000
8.09321	0.00000	5542.41000
8.09705	0.00000	5542.41000
8.10088	0.00000	5542.41000
8.10472	0.00000	5537.94600
8.10856	0.00000	5537.94600
8.11240	0.00000	5537.94600
8.11624	0.00000	5537.94600
8.12008	0.00000	5537.94600
8.12393	0.00000	5537.94600
8.12777	0.00000	5537.94600
8.13161	0.00000	5535.71400
8.13545	0.00000	5535.71400
8.13929	0.00000	5535.71400
8.14314	0.00000	5535.71400
8.14697	0.00000	5535.71400
8.15081	0.00000	5535.71400
8.15465	0.00000	5535.71400
8.15850	0.00000	5535.71400
8.16234	0.00000	5535.71400
8.16618	0.00000	5535.71400
8.17001	0.00000	5535.71400
8.17386	0.00000	5535.71400
8.17771	0.00000	5535.71400
8.18155	0.00000	5535.71400
8.18539	0.00000	5533.48200
8.18923	0.00000	5533.48200
8.19308	0.00000	5533.48200
8.19692	0.00000	5533.48200
8.20077	0.00000	5533.48200
8.20461	0.00000	5533.48200
8.20845	0.00000	5533.48200
8.21229	0.00000	5586.68800
8.21616	0.00000	5586.68800
8.22001	0.00000	5586.68800
8.22384	0.00000	5586.68800
8.22768	0.00000	5586.68800
8.23153	0.00000	5586.68800
8.23536	0.00000	5586.68800
8.23920	0.00000	5524.55300
8.24303	0.00000	5524.55300
8.24688	0.00000	5524.55300
8.25072	0.00000	5524.55300
8.25457	0.00000	5524.55300
8.25841	0.00000	5524.55300
8.26224	0.00000	5524.55300
8.26608	0.00000	5524.55300
8.26992	0.00000	5524.55300
8.27375	0.00000	5524.55300
8.27760	0.00000	5524.55300
8.28144	0.00000	5524.55300
8.28527	0.00000	5524.55300
8.28911	0.00000	5524.55300
8.29297	0.00000	5524.55300
8.29681	0.00000	5529.01800
8.30066	0.00000	5529.01800
8.30451	0.00000	5529.01800
8.30836	0.00000	5529.01800
8.31220	0.00000	5529.01800
8.31605	0.00000	5529.01800
8.31989	0.00000	5529.01800
8.32373	0.00000	5524.55300
8.32757	0.00000	5524.55300
8.33141	0.00000	5524.55300
8.33524	0.00000	5524.55300
8.33908	0.00000	5524.55300
8.34294	0.00000	5524.55300
8.34677	0.00000	5524.55300
8.35061	0.00000	5577.67400
8.35445	0.00000	5577.67400
8.35829	0.00000	5577.67400
8.36212	0.00000	5577.67400
8.36595	0.00000	5577.67400
8.36980	0.00000	5577.67400
8.37363	0.00000	5577.67400
8.37747	0.00000	5529.01800
8.38132	0.00000	5529.01800
8.38515	0.00000	5529.01800
8.38899	0.00000	5529.01800
8.39284	0.00000	5529.01800
8.39668	0.00000	5529.01800
8.40052	0.00000	5529.01800
8.40437	0.00000	5524.55300
8.40821	0.00000	5524.55300
8.41206	0.00000	5524.55300
8.41589	0.00000	5524.55300
8.41974	0.00000	5524.55300
8.42357	0.00000	5524.55300
8.42741	0.00000	5524.55300
8.43125	0.00000	5531.25000
8.43509	0.00000	5531.25000
8.43893	0.00000	5531.25000
8.44277	0.00000	5531.25000
8.44660	0.00000	5531.25000
8.45044	0.00000	5531.25000
8.45428	0.00000	5531.25000
8.45811	0.00000	5575.42100
8.46195	0.00000	5575.42100
8.46579	0.00000	5575.42100
8.46963	0.00000	5575.42100
8.47346	0.00000	5575.42100
8.47731	0.00000	5575.42100
8.48114	0.00000	5575.42100
8.48498	0.00000	5526.78500
8.48883	0.00000	5526.78500
8.49266	0.00000	5526.78500
8.49651	0.00000	5526.78500
8.50035	0.00000	5526.78500
8.50418	0.00000	5526.78500
8.50802	0.00000	5526.78500
8.51185	0.00000	5526.78500
8.51571	0.00000	5526.78500
8.51954	0.00000	5526.78500
8.52338	0.00000	5526.78500
8.52721	0.00000	5526.78500
8.53105	0.00000	5526.78500
8.53489	0.00000	5526.78500
8.53874	0.00000	5577.67400
8.54257	0.00000	5577.67400
8.54641	0.00000	5577.67400
8.55028	0.00000	5577.67400
8.55414	0.00000	5577.67400
8.55798	0.00000	5577.67400
8.56182	0.00000	5577.67400
8.56568	0.00000	5577.67400
8.56951	0.00000	5506.69600
8.57334	0.00000	5506.69600
8.57719	0.00000	5506.69600
8.58102	0.00000	5506.69600
8.58486	0.00000	5506.69600
8.58871	0.00000	5506.69600
8.59255	0.00000	5506.69600
8.59640	0.00000	5522.32100
8.60023	0.00000	5522.32100
8.60408	0.00000	5522.32100
8.60791	0.00000	5522.32100
8.61175	0.00000	5522.32100
8.61559	0.00000	5522.32100
8.61943	0.00000	5522.32100
8.62326	0.00000	5577.67400
8.62711	0.00000	5577.67400
8.63094	0.00000	5577.67400
8.63479	0.00000	5577.67400
8.63863	0.00000	5577.67400
8.64247	0.00000	5577.67400
8.64630	0.00000	5577.67400
8.65015	0.00000	5520.08900
8.65398	0.00000	5520.08900
8.65782	0.00000	5520.08900
8.66166	0.00000	5520.08900
8.66551	0.00000	5520.08900
8.66935	0.00000	5520.08900
8.67319	0.00000	5520.08900
8.67704	0.00000	5515.62500
8.68088	0.00000	5515.62500
8.68472	0.00000	5515.62500
8.68855	0.00000	5515.62500
8.69240	0.00000	5515.62500
8.69624	0.00000	5515.62500
8.70007	0.00000	5515.62500
8.70391	0.00000	5573.16700
8.70773	0.00000	5573.16700
8.71157	0.00000	5573.16700
8.71540	0.00000	5573.16700
8.71924	0.00000	5573.16700
8.72309	0.00000	5573.16700
8.72693	0.00000	5573.16700
8.73077	0.00000	5568.65900
8.73461	0.00000	5568.65900
8.73845	0.00000	5568.65900
8.74229	0.00000	5568.65900
8.74613	0.00000	5568.65900
8.74997	0.00000	5568.65900
8.75381	0.00000	5568.65900
8.75765	0.00000	5515.62500
8.76148	0.00000	5515.62500
8.76532	0.00000	5515.62500
8.76915	0.00000	5515.62500
8.77299	0.00000	5515.62500
8.77684	0.00000	5515.62500
8.78068	0.00000	5515.62500
8.78453	0.00000	5513.39300
8.78836	0.00000	5513.39300
8.79221	0.00000	5513.39300
8.79605	0.00000	5513.39300
8.79989	0.00000	5513.39300
8.80372	0.00000	5513.39300
8.80757	0.00000	5513.39300
8.81140	0.00000	5515.62500
8.81525	0.00000	5515.62500
8.81909	0.00000	5515.62500
8.82294	0.00000	5515.62500
8.82677	0.00000	5515.62500
8.83060	0.00000	5515.62500
8.83444	0.00000	5515.62500
8.83829	0.00000	5561.89900
8.84216	0.00000	5561.89900
8.84602	0.00000	5561.89900
8.84986	0.00000	5561.89900
8.85371	0.00000	5561.89900
8.85754	0.00000	5561.89900
8.86138	0.00000	5561.89900
8.86523	0.00000	5564.15300
8.86905	0.00000	5564.15300
8.87289	0.00000	5564.15300
8.87673	0.00000	5564.15300
8.88057	0.00000	5564.15300
8.88442	0.00000	5564.15300
8.88827	0.00000	5564.15300
8.89211	0.00000	5552.88500
8.89593	0.00000	5552.88500
8.89977	0.00000	5552.88500
8.90361	0.00000	5552.88500
8.90746	0.00000	5552.88500
8.91129	0.00000	5552.88500
8.91513	0.00000	5552.88500
8.91898	0.00000	5552.88500
8.92281	0.00000	5555.13800
8.92664	0.00000	5555.13800
8.93048	0.00000	5555.13800
8.93433	0.00000	5555.13800
8.93817	0.00000	5555.13800
8.94201	0.00000	5555.13800
8.94585	0.00000	5555.13800
8.94970	0.00000	5511.16000
8.95354	0.00000	5511.16000
8.95737	0.00000	5511.16000
8.96121	0.00000	5511.16000
8.96505	0.00000	5511.16000
8.96888	0.00000	5511.16000
8.97274	0.00000	5511.16000
8.97656	0.00000	5515.62500
8.98040	0.00000	5515.62500
8.98424	0.00000	5515.62500
8.98807	0.00000	5515.62500
8.99191	0.00000	5515.62500
8.99574	0.00000	5515.62500
8.99957	0.00000	5515.62500
9.00341	0.00000	5570.91300
9.00724	0.00000	5570.91300
9.01107	0.00000	5570.91300
9.01493	0.00000	5570.91300
9.01878	0.00000	5570.91300
9.02262	0.00000	5570.91300
9.02645	0.00000	5570.91300
9.03030	0.00000	5564.15300
9.03414	0.00000	5564.15300
9.03798	0.00000	5564.15300
9.04182	0.00000	5564.15300
9.04566	0.00000	5564.15300
9.04950	0.00000	5564.15300
9.05334	0.00000	5564.15300
9.05717	0.00000	5573.16700
9.06102	0.00000	5573.16700
9.06486	0.00000	5573.16700
9.06870	0.00000	5573.16700
9.07254	0.00000	5573.16700
9.07638	0.00000	5573.16700
9.08023	0.00000	5573.16700
9.08406	0.00000	5511.16000
9.08790	0.00000	5511.16000
9.09174	0.00000	5511.16000
9.09558	0.00000	5511.16000
9.09943	0.00000	5511.16000
9.10326	0.00000	5511.16000
9.10711	0.00000	5511.16000
9.11095	0.00000	5520.08900
9.11478	0.00000	5520.08900
9.11862	0.00000	5520.08900
9.12247	0.00000	5520.08900
9.12630	0.00000	5520.08900
9.13015	0.00000	5520.08900
9.13399	0.00000	5520.08900
9.13782	0.00000	5564.15300
9.14167	0.00000	5564.15300
9.14551	0.00000	5564.15300
9.14936	0.00000	5564.15300
9.15319	0.00000	5564.15300
9.15703	0.00000	5564.15300
9.16087	0.00000	5564.15300
9.16470	0.00000	5568.65900
9.16856	0.00000	5568.65900
9.17240	0.00000	5568.65900
9.17624	0.00000	5568.65900
9.18007	0.00000	5568.65900
9.18391	0.00000	5568.65900
9.18774	0.00000	5568.65900
9.19158	0.00000	5559.64500
9.19541	0.00000	5559.64500
9.19927	0.00000	5559.64500
9.20310	0.00000	5559.64500
9.20695	0.00000	5559.64500
9.21079	0.00000	5559.64500
9.21463	0.00000	5559.64500
9.21847	0.00000	5555.13800
9.22229	0.00000	5555.13800
9.22613	0.00000	5555.13800
9.22998	0.00000	5555.13800
9.23382	0.00000	5555.13800
9.23768	0.00000	5555.13800
9.24151	0.00000	5555.13800
9.24535	0.00000	5555.13800
9.24919	0.00000	5504.46400
9.25303	0.00000	5504.46400
9.25687	0.00000	5504.46400
9.26071	0.00000	5504.46400
9.26454	0.00000	5504.46400
9.26837	0.00000	5504.46400
9.27221	0.00000	5504.46400
9.27606	0.00000	5508.92800
9.27989	0.00000	5508.92800
9.28372	0.00000	5508.92800
9.28756	0.00000	5508.92800
9.29141	0.00000	5508.92800
9.29525	0.00000	5508.92800
9.29909	0.00000	5508.92800
9.30293	0.00000	5561.89900
9.30679	0.00000	5561.89900
9.31063	0.00000	5561.89900
9.31448	0.00000	5561.89900
9.31832	0.00000	5561.89900
9.32216	0.00000	5561.89900
9.32600	0.00000	5561.89900
9.32985	0.00000	5564.15300
9.33370	0.00000	5564.15300
9.33753	0.00000	5564.15300
9.34137	0.00000	5564.15300
9.34521	0.00000	5564.15300
9.34905	0.00000	5564.15300
9.35288	0.00000	5564.15300
9.35672	0.00000	5564.15300
9.36056	0.00000	5564.15300
9.36440	0.00000	5564.15300
9.36826	0.00000	5564.15300
9.37209	0.00000	5564.15300
9.37593	0.00000	5564.15300
9.37976	0.00000	5564.15300
9.38360	0.00000	5561.89900
9.38743	0.00000	5561.89900
9.39128	0.00000	5561.89900
9.39512	0.00000	5561.89900
9.39896	0.00000	5561.89900
9.40280	0.00000	5561.89900
9.40665	0.00000	5561.89900
9.41049	0.00000	5506.69600
9.41432	0.00000	5506.69600
9.41816	0.00000	5506.69600
9.42201	0.00000	5506.69600
9.42585	0.00000	5506.69600
9.42969	0.00000	5506.69600
9.43352	0.00000	5506.69600
9.43735	0.00000	5508.92800
9.44119	0.00000	5508.92800
9.44505	0.00000	5508.92800
9.44888	0.00000	5508.92800
9.45273	0.00000	5508.92800
9.45657	0.00000	5508.92800
9.46040	0.00000	5508.92800
9.46424	0.00000	5508.92800
9.46809	0.00000	5508.92800
9.47193	0.00000	5508.92800
9.47577	0.00000	5508.92800
9.47960	0.00000	5508.92800
9.48344	0.00000	5508.92800
9.48727	0.00000	5508.92800
9.49113	0.00000	5511.16000
9.49496	0.00000	5511.16000
9.49882	0.00000	5511.16000
9.50265	0.00000	5511.16000
9.50649	0.00000	5511.16000
9.51033	0.00000	5511.16000
9.51418	0.00000	5511.16000
9.51801	0.00000	5561.89900
9.52186	0.00000	5561.89900
9.52570	0.00000	5561.89900
9.52954	0.00000	5561.89900
9.53338	0.00000	5561.89900
9.53721	0.00000	5561.89900
9.54105	0.00000	5561.89900
9.54490	0.00000	5564.15300
9.54875	0.00000	5564.15300
9.55259	0.00000	5564.15300
9.55642	0.00000	5564.15300
9.56026	0.00000	5564.15300
9.56410	0.00000	5564.15300
9.56794	0.00000	5564.15300
9.57177	0.00000	5557.39100
9.57562	0.00000	5557.39100
9.57945	0.00000	5557.39100
9.58329	0.00000	5557.39100
9.58713	0.00000	5557.39100
9.59098	0.00000	5557.39100
9.59481	0.00000	5557.39100
9.59865	0.00000	5557.39100
9.60248	0.00000	5557.39100
9.60632	0.00000	5557.39100
9.61016	0.00000	5557.39100
9.61401	0.00000	5557.39100
9.61785	0.00000	5557.39100
9.62170	0.00000	5557.39100
9.62555	0.00000	5557.39100
9.62939	0.00000	5502.23200
9.63322	0.00000	5502.23200
9.63706	0.00000	5502.23200
9.64090	0.00000	5502.23200
9.64474	0.00000	5502.23200
9.64858	0.00000	5502.23200
9.65242	0.00000	5502.23200
9.65625	0.00000	5511.16000
9.66010	0.00000	5511.16000
9.66394	0.00000	5511.16000
9.66777	0.00000	5511.16000
9.67161	0.00000	5511.16000
9.67545	0.00000	5511.16000
9.67928	0.00000	5511.16000
9.68312	0.00000	5564.15300
9.68695	0.00000	5564.15300
9.69080	0.00000	5564.15300
9.69463	0.00000	5564.15300
9.69848	0.00000	5564.15300
9.70231	0.00000	5564.15300
9.70616	0.00000	5564.15300
9.71000	0.00000	5564.15300
9.71383	0.00000	5564.15300
9.71767	0.00000	5564.15300
9.72152	0.00000	5564.15300
9.72536	0.00000	5564.15300
9.72920	0.00000	5564.15300
9.73304	0.00000	5564.15300
9.73689	0.00000	5561.89900
9.74072	0.00000	5561.89900
9.74456	0.00000	5561.89900
9.74840	0.00000	5561.89900
9.75225	0.00000	5561.89900
9.75610	0.00000	5561.89900
9.75995	0.00000	5561.89900
9.76379	0.00000	5564.15300
9.76763	0.00000	5564.15300
9.77146	0.00000	5564.15300
9.77531	0.00000	5564.15300
9.77914	0.00000	5564.15300
9.78299	0.00000	5564.15300
9.78683	0.00000	5564.15300
9.79066	0.00000	5511.16000
9.79449	0.00000	5511.16000
9.79834	0.00000	5511.16000
9.80219	0.00000	5511.16000
9.80603	0.00000	5511.16000
9.80986	0.00000	5511.16000
9.81371	0.00000	5511.16000
9.81755	0.00000	5506.69600
9.82140	0.00000	5506.69600
9.82524	0.00000	5506.69600
9.82908	0.00000	5506.69600
9.83292	0.00000	5506.69600
9.83676	0.00000	5506.69600
9.84061	0.00000	5506.69600
9.84451	0.00000	5506.69600
9.84839	0.00000	5506.69600
9.85224	0.00000	5506.69600
9.85609	0.00000	5506.69600
9.85993	0.00000	5506.69600
9.86377	0.00000	5506.69600
9.86762	0.00000	5506.69600
9.87146	0.00000	5504.46400
9.87529	0.00000	5504.46400
9.87915	0.00000	5504.46400
9.88300	0.00000	5504.46400
9.88683	0.00000	5504.46400
9.89067	0.00000	5504.46400
9.89451	0.00000	5504.46400
9.89835	0.00000	5557.39100
9.90221	0.00000	5557.39100
9.90605	0.00000	5557.39100
9.90987	0.00000	5557.39100
9.91370	0.00000	5557.39100
9.91755	0.00000	5557.39100
9.92139	0.00000	5557.39100
9.92523	0.00000	5561.89900
9.92907	0.00000	5561.89900
9.93291	0.00000	5561.89900
9.93674	0.00000	5561.89900
9.94059	0.00000	5561.89900
9.94442	0.00000	5561.89900
9.94825	0.00000	5561.89900
9.95209	0.00000	5543.87000
9.95592	0.00000	5543.87000
9.95975	0.00000	5543.87000
9.96359	0.00000	5543.87000
9.96743	0.00000	5543.87000
9.97126	0.00000	5543.87000
9.97511	0.00000	5543.87000
9.97894	0.00000	5543.87000
9.98277	0.00000	5546.12400
9.98661	0.00000	5546.12400
9.99045	0.00000	5546.12400
9.99428	0.00000	5546.12400
9.99813	0.00000	5546.12400
