Time (s)   Thrust (N)   RPM
0.00020	2.51539	4107.29800
0.03354	2.62283	4261.94500
0.06820	2.80614	4383.27800
0.10288	2.95500	4469.05300
0.13759	3.05576	4516.77300
0.17230	3.13903	4577.38100
0.20699	3.20334	4614.02800
0.24170	3.25500	4626.35800
0.27640	3.28073	4655.47300
0.31110	3.32003	4690.41100
0.34579	3.33180	4687.50000
0.38052	3.35531	4701.96700
0.41521	3.36531	4713.38200
0.44992	3.37957	4716.34600
0.48462	3.37782	4713.38200
0.51932	3.38509	4710.36500
0.55403	3.39112	4722.00900
0.58873	3.39479	4727.76000
0.62344	3.39638	4724.65700
0.65814	3.39596	4724.88500
0.69285	3.39351	4733.23100
0.72754	3.39644	4727.76000
0.76225	3.39191	4719.03600
0.79695	3.39574	4721.69500
0.83165	3.39630	4727.76000
0.86636	3.39657	4719.03600
0.90105	3.40484	4730.37300
0.93576	3.39670	4739.26400
0.97046	3.39928	4730.37300
1.00516	3.40228	4730.63600
1.03987	3.40397	4733.51200
1.07457	3.40141	4730.63600
1.15341	3.39679	4730.63600
1.18809	3.39814	4736.38800
1.22278	3.39664	4730.37300
1.25748	3.39146	4736.38800
1.29220	3.38819	4719.03600
1.32688	3.38601	4730.63600
1.36161	3.38587	4724.88500
1.39630	3.38426	4730.37300
1.43101	3.38639	4730.63600
1.46571	3.38527	4730.63600
1.50041	3.37966	4736.09000
1.53511	3.38186	4736.38800
1.56981	3.38038	4727.51500
1.60451	3.38062	4721.90400
1.63921	3.38324	4736.38800
1.67393	3.37872	4730.37300
1.70863	3.38112	4733.51200
1.74332	3.38417	4721.90400
1.77803	3.38418	4736.09000
1.81273	3.37496	4739.26400
1.84743	3.37620	4733.23100
1.88214	3.37733	4736.38800
1.91684	3.37526	4742.13900
1.95156	3.38113	4733.09300
1.98626	3.37942	4745.01500
2.06539	3.39080	4733.37100
2.10009	3.37988	4730.24300
2.13480	3.37931	4736.23800
2.16951	3.38395	4739.10500
2.20420	3.37579	4733.09300
2.23890	3.38301	4730.50500
2.27361	3.37958	4733.09300
2.30832	3.38247	4739.10500
2.34301	3.38182	4739.10500
2.37773	3.38530	4741.64100
2.41242	3.38220	4739.10500
2.44713	3.38275	4735.94200
2.48184	3.38114	4739.10500
2.56052	3.37460	4741.97200
2.59522	3.37555	4741.64100
2.62992	3.37520	4739.10500
2.66463	3.37609	4739.10500
2.69933	3.37588	4733.09300
2.73403	3.37311	4733.37100
2.76874	3.37289	4739.10500
2.80343	3.36793	4733.23100
2.83814	3.37586	4747.89100
2.87285	3.37205	4741.64100
2.90757	3.37140	4739.10500
2.94226	3.36627	4736.23800
2.97696	3.36977	4733.09300
3.01167	3.37160	4730.50500
3.04636	3.37929	4730.24300
3.08106	3.37161	4733.37100
3.11577	3.37025	4739.10500
3.15048	3.37126	4744.49000
3.18517	3.36522	4739.10500
3.21988	3.37423	4750.76700
3.25459	3.37257	4741.64100
3.28928	3.37289	4733.37100
3.32398	3.37054	4733.09300
3.35869	3.36802	4736.23800
3.39339	3.36966	4739.10500
3.42809	3.36871	4735.94200
3.46281	3.36915	4739.10500
3.49749	3.36075	4736.23800
3.53220	3.36445	4741.64100
3.56690	3.36163	4736.23800
3.60160	3.35725	4733.09300
3.63631	3.36102	4741.97200
3.67100	3.36673	4747.70600
3.70570	3.37265	4747.34000
3.74041	3.37045	4730.37300
3.77511	3.37255	4744.49000
3.80982	3.36600	4747.70600
3.84451	3.36743	4756.51800
3.87921	3.36462	4741.64100
3.91392	3.37469	4747.70600
3.99347	3.36462	4741.97200
4.02817	3.36607	4741.64100
4.06287	3.37192	4744.83900
4.09758	3.37772	4747.70600
4.13229	3.37869	4741.64100
4.16698	3.36985	4750.57300
4.20169	3.37470	4750.19000
4.23639	3.37675	4744.83900
4.27110	3.37671	4741.97200
4.30580	3.37986	4750.19000
4.34051	3.37973	4747.70600
4.37521	3.37712	4727.27200
4.40990	3.37609	4741.97200
4.44461	3.37049	4739.10500
4.47931	3.36912	4750.38100
4.51402	3.37126	4736.23800
4.54872	3.36868	4753.64300
4.58342	3.37088	4738.79200
4.61813	3.37564	4741.97200
4.65282	3.37533	4741.64100
4.68753	3.36792	4739.10500
4.72223	3.37613	4741.97200
4.75692	3.37384	4735.94200
4.79164	3.38309	4739.10500
4.82634	3.37973	4739.10500
4.86105	3.36890	4741.64100
4.89575	3.36507	4736.23800
4.93045	3.36756	4735.94200
4.96515	3.37177	4736.23800
4.99985	3.36764	4745.01500
5.03492	3.36140	4701.87900
5.06931	3.11919	4500.00000
5.10397	2.91690	4357.35000
5.13866	2.75133	4242.58400
5.17336	2.53099	4120.41000
5.25169	2.47201	4062.50000
5.28640	2.42508	4066.90100
5.32109	2.39240	4040.25700
5.35581	2.36064	3996.88600
5.39051	2.33667	3988.57500
5.42520	2.30716	3971.77400
5.45991	2.30286	3951.61200
5.49462	2.28647	3966.60600
5.52932	2.28246	3948.96500
5.56403	2.28134	3959.83700
5.59873	2.28707	3951.61200
5.63343	2.27881	3956.45300
5.66814	2.27878	3946.29900
5.70284	2.27454	3942.91500
5.73755	2.26742	3949.68400
5.77224	2.27042	3939.53000
5.80694	2.26217	3936.14600
5.84166	2.26068	3939.53000
5.87635	2.26529	3947.01100
5.91106	2.26372	3936.14600
5.94576	2.26106	3934.81100
5.98047	2.25267	3932.76100
6.05872	2.26693	3947.01100
6.09342	2.25910	3947.01100
6.17169	2.25179	3932.76100
6.20638	2.26599	3946.29900
6.24110	2.26997	3939.53000
6.27579	2.26841	3946.29900
6.31051	2.26929	3936.14600
6.34520	2.26880	3934.81100
6.37991	2.27077	3935.47600
6.41461	2.26792	3939.53000
6.44931	2.26652	3953.80400
6.48402	2.26491	3953.80400
6.51872	2.27075	3932.76100
6.55342	2.27647	3932.76100
6.58812	2.26678	3943.61400
6.62282	2.25813	3936.82000
6.65752	2.25711	3936.82000
6.69224	2.25915	3936.82000
6.72694	2.26158	3939.53000
6.76163	2.26299	3950.40700
6.79635	2.26631	3939.53000
6.83104	2.27295	3939.53000
6.86575	2.26720	3939.53000
6.90044	2.26843	3946.29900
6.93515	2.27735	3946.29900
6.96985	2.26391	3932.76100
7.00456	2.26041	3936.14600
7.03927	2.25901	3950.40700
7.07397	2.26182	3934.81100
7.10867	2.27009	3942.91500
7.14338	2.26982	3936.14600
7.17808	2.26693	3946.29900
7.21278	2.26558	3939.53000
7.24749	2.27361	3946.29900
7.28219	2.28134	3946.29900
7.31690	2.26859	3942.91500
7.35159	2.26803	3946.29900
7.38630	2.26697	3932.76100
7.42101	2.26719	3942.91500
7.45571	2.26637	3938.17200
7.49042	2.26465	3936.14600
7.52512	2.26999	3935.47600
7.55983	2.26405	3946.29900
7.59452	2.26646	3942.91500
7.62923	2.27008	3935.47600
7.66394	2.27053	3946.29900
7.69864	2.27060	3953.06800
7.73334	2.27658	3949.68400
7.76805	2.27156	3939.53000
7.80275	2.27170	3941.53200
7.83745	2.27105	3936.14600
7.87216	2.27363	3939.53000
7.90686	2.27498	3936.14600
7.94157	2.27830	3939.53000
7.97626	2.28184	3939.53000
8.01097	2.27848	3947.01100
8.04567	2.28112	3942.91500
8.08037	2.27736	3936.14600
8.11507	2.28122	3939.53000
8.14978	2.28596	3936.14600
8.18449	2.28273	3931.45100
8.21919	2.28834	3942.91500
8.25389	2.29238	3953.80400
8.28859	2.28045	3936.14600
8.32330	2.28588	3932.76100
8.35801	2.28495	3947.01100
8.39272	2.28870	3936.14600
8.42742	2.28104	3936.82000
8.46212	2.28071	3936.82000
8.49681	2.28187	3936.82000
8.53152	2.27976	3940.21700
8.56622	2.29403	3932.10400
8.60094	2.28365	3936.82000
8.63563	2.28735	3940.21700
8.67033	2.28011	3940.21700
8.70504	2.28532	3933.42300
8.73974	2.28237	3925.99200
8.77446	2.28311	3933.42300
8.80915	2.27715	3936.82000
8.84386	2.27225	3930.02700
8.87856	2.28079	3919.22300
8.91326	2.27842	3926.63000
8.94798	2.27835	3928.73200
8.98267	2.27409	3926.63000
9.01737	2.28201	3925.99200
9.05210	2.28138	3936.82000
9.08678	2.27755	3922.60800
9.12148	2.29223	3943.61400
9.15619	2.28800	3936.82000
9.19088	2.28156	3930.02700
9.22558	2.28171	3936.82000
9.26029	2.27748	3930.02700
9.29499	2.27597	3930.02700
9.32970	2.27078	3921.98700
9.36438	2.27691	3930.02700
9.39908	2.28794	3933.42300
9.43378	2.27726	3933.42300
9.46848	2.28166	3933.42300
9.50317	2.28161	3926.63000
9.53788	2.27998	3933.42300
9.57257	2.28849	3933.42300
9.60729	2.28978	3919.22300
9.64199	2.29033	3922.60800
9.67669	2.28540	3930.02700
9.71138	2.28804	3928.73200
9.74609	2.28609	3930.02700
9.78080	2.28057	3926.63000
9.81549	2.28621	3926.63000
9.85018	2.28641	3923.23300
9.88489	2.27818	3934.09000
9.91960	2.28018	3930.02700
9.95430	2.28859	3933.42300
9.98899	2.28362	3933.42300
