Time (s)   Thrust (N)   RPM  Input
0.00023	4.36613	5462.37200	7.00000
0.03338	4.20019	5156.25000	7.00000
0.11160	3.96165	5058.81300	7.00000
0.14627	3.80019	4943.67700	7.00000
0.18096	3.69012	4886.44600	7.00000
0.21566	3.58823	4829.79900	7.00000
0.25038	3.53181	4862.57500	7.00000
0.28506	3.48390	4810.40400	7.00000
0.31977	3.43704	4747.52300	7.00000
0.35447	3.41214	4693.21700	7.00000
0.43399	3.33567	4722.22200	7.00000
0.51215	3.31760	4707.75500	7.00000
0.54684	3.31723	4733.79600	7.00000
0.58152	3.32414	4704.86100	7.00000
0.61622	3.30976	4728.00900	7.00000
0.65091	3.30707	4701.96700	7.00000
0.68561	3.31293	4701.96700	7.00000
0.72031	3.30144	4722.22200	7.00000
0.75502	3.29703	4701.96700	7.00000
0.78971	3.30182	4701.96700	7.00000
0.82441	3.31332	4736.69000	7.00000
0.85912	3.31590	4704.86100	7.00000
0.89383	3.31881	4699.07400	7.00000
0.92852	3.31969	4728.00900	7.00000
0.96322	3.31599	4693.28700	7.00000
0.99793	3.31393	4733.79600	7.00000
1.03263	3.31193	4693.28700	7.00000
1.06734	3.31058	4696.18000	7.00000
1.10203	3.31744	4667.49200	7.00000
1.13670	3.31040	4701.96700	7.00000
1.17146	3.30805	4707.75500	7.00000
1.20615	3.30619	4670.35000	7.00000
1.24086	3.30924	4704.86100	7.00000
1.27558	3.31358	4701.96700	7.00000
1.31026	3.31515	4704.86100	7.00000
1.34497	3.31631	4701.96700	7.00000
1.37967	3.33193	4736.69000	7.00000
1.41437	3.31314	4704.86100	7.00000
1.44906	3.31794	4701.96700	7.00000
1.48377	3.31931	4736.69000	7.00000
1.51846	3.32093	4707.75500	7.00000
1.55318	3.30372	4699.07400	7.00000
1.63162	3.30041	4673.20900	7.00000
1.66632	3.30496	4704.86100	7.00000
1.70102	3.29955	4763.67200	7.00000
1.73572	3.31066	4673.20900	7.00000
1.77042	3.31746	4704.86100	7.00000
1.80513	3.31396	4676.06700	7.00000
1.83984	3.31356	4707.75500	7.00000
1.87454	3.30811	4707.75500	7.00000
1.90927	3.31413	4653.20100	7.00000
1.98848	3.31566	4713.54100	7.00000
2.02318	3.31595	4713.54100	7.00000
2.05789	3.32353	4678.92500	7.00000
2.09259	3.31941	4710.64800	7.00000
2.12730	3.32682	4710.64800	7.00000
2.16205	3.29618	4742.47600	7.00000
2.19673	3.31959	4710.64800	7.00000
2.23141	3.31595	4733.79600	7.00000
2.26612	3.32141	4713.54100	7.00000
2.30082	3.31683	4704.86100	7.00000
2.33551	3.30264	4681.78300	7.00000
2.37023	3.30289	4710.64800	7.00000
2.40493	3.29780	4707.75500	7.00000
2.43964	3.30307	4681.78300	7.00000
2.47433	3.30112	4713.54100	7.00000
2.55260	3.29346	4656.05900	7.00000
2.58731	3.31110	4687.50000	7.00000
2.62200	3.32012	4722.22200	7.00000
2.65672	3.30908	4748.26400	7.00000
2.69141	3.30623	4725.11500	7.00000
2.72613	3.31063	4728.00900	7.00000
2.76083	3.29693	4690.35800	7.00000
2.79553	3.30296	4722.22200	7.00000
2.83024	3.30021	4667.49200	7.00000
2.86495	3.28360	4687.50000	7.00000
2.89965	3.30270	4728.00900	7.00000
2.93438	3.29625	4728.00900	7.00000
2.96908	3.31412	4704.64900	7.00000
3.00377	3.31094	4722.22200	7.00000
3.03847	3.29680	4698.93300	7.00000
3.07318	3.32887	4728.00900	7.00000
3.10788	3.32253	4725.11500	7.00000
3.14258	3.30131	4693.21700	7.00000
3.17729	3.30754	4725.11500	7.00000
3.21200	3.30833	4730.90300	7.00000
3.24670	3.31350	4698.93300	7.00000
3.28141	3.40063	4722.22200	7.00000
3.40552	3.32699	4719.32900	7.00000
3.52730	3.31891	4693.21700	7.00000
3.56192	3.32691	4710.64800	7.00000
3.59661	3.31208	4716.43500	7.00000
3.63130	3.31797	4681.78300	7.00000
3.66600	3.30719	4719.32900	7.00000
3.70070	3.30488	4710.64800	7.00000
3.73539	3.32503	4693.21700	7.00000
3.77011	3.27746	4713.54100	7.00000
3.80481	3.30527	4745.37000	7.00000
3.83954	3.31759	4716.43500	7.00000
3.87421	3.31972	4722.22200	7.00000
3.90892	3.30841	4687.50000	7.00000
3.94362	3.31944	4716.43500	7.00000
3.97833	3.24366	4667.49200	7.00000
4.01303	3.31924	4687.50000	7.00000
4.04773	3.30068	4722.22200	7.00000
4.08244	3.30095	4742.47600	7.00000
4.11713	3.32120	4713.54100	7.00000
4.15188	3.31548	4710.64800	7.00000
4.18656	3.31827	4687.50000	7.00000
4.22127	3.31053	4710.64800	7.00000
4.25597	3.31505	4719.32900	7.00000
4.29067	3.32433	4736.69000	7.00000
4.32537	3.32042	4707.75500	7.00000
4.36008	3.32856	4710.64800	7.00000
4.39478	3.32936	4728.00900	7.00000
4.42951	3.32022	4699.07400	7.00000
4.46419	3.33358	4728.00900	7.00000
4.49889	3.34012	4696.18000	7.00000
4.53360	3.34896	4693.28700	7.00000
4.56830	3.33830	4661.77600	7.00000
4.60300	3.34339	4746.09400	7.00000
4.63772	3.34232	4687.50000	7.00000
4.67242	3.33968	4713.54100	7.00000
4.70713	3.33348	4687.50000	7.00000
4.74182	3.33716	4687.50000	7.00000
4.77654	3.34607	4707.75500	7.00000
4.81123	3.35056	4684.60600	7.00000
4.84594	3.35425	4653.20100	7.00000
4.88065	3.34586	4678.81900	7.00000
4.96016	3.35298	4675.92600	7.00000
4.99504	3.35020	4675.92600	7.00000
5.07505	3.34300	4653.20100	7.70000
5.10945	4.24618	5388.18300	7.70000
5.23215	4.55029	5443.23900	7.70000
5.26679	4.64734	5449.21900	7.70000
5.30149	4.71231	5538.28100	7.70000
5.33619	4.71183	5543.78100	7.70000
5.37090	4.75307	5569.30700	7.70000
5.40560	4.81653	5564.66600	7.70000
5.44028	4.79473	5571.62700	7.70000
5.47500	4.80516	5604.11400	7.70000
5.50970	4.81813	5608.75600	7.70000
5.54442	4.81537	5580.90900	7.70000
5.57912	4.78965	5578.58900	7.70000
5.65836	4.55194	5567.55500	7.70000
5.69307	4.80423	5560.66100	7.70000
5.72777	4.80119	5580.90900	7.70000
5.76249	4.80764	5558.36400	7.70000
5.79718	4.72632	5615.71800	7.70000
5.83189	4.77474	5578.58900	7.70000
5.86659	4.81526	5608.75600	7.70000
5.90130	4.79048	5613.39700	7.70000
5.93601	4.80008	5578.58900	7.70000
5.97072	4.81486	5611.07600	7.70000
6.00540	4.83216	5553.76800	7.70000
6.04011	4.78147	5576.26800	7.70000
6.07481	4.54693	5608.75600	7.70000
6.10951	4.78929	5553.76800	7.70000
6.14424	4.77639	5583.23000	7.70000
6.17892	4.78265	5544.57700	7.70000
6.21365	4.78531	5558.36400	7.70000
6.24835	4.79291	5627.32100	7.70000
6.28307	4.78975	5592.51200	7.70000
6.31775	4.74628	5574.44800	7.70000
6.35246	4.74033	5572.15100	7.70000
6.38718	4.76688	5599.47300	7.70000
6.42186	4.77601	5574.44800	7.70000
6.45657	4.77669	5572.15100	7.70000
6.49128	4.79275	5597.15300	7.70000
6.52599	4.82431	5576.74600	7.70000
6.56069	4.75174	5574.44800	7.70000
6.59541	4.70352	5590.19100	7.70000
6.63010	4.76473	5627.32100	7.70000
6.66480	4.75279	5574.44800	7.70000
6.69950	4.77770	5597.15300	7.70000
6.73425	4.77547	5625.00000	7.70000
6.76891	4.78246	5574.44800	7.70000
6.80362	4.77380	5574.44800	7.70000
6.83833	4.78111	5597.15300	7.70000
6.87304	4.74929	5581.34200	7.70000
6.90773	4.76946	5576.74600	7.70000
6.94244	4.78087	5546.87500	7.70000
6.97715	4.78638	5576.74600	7.70000
7.01183	4.78177	5629.64100	7.70000
7.04655	4.74849	5549.17300	7.70000
7.08126	4.75653	5579.04400	7.70000
7.11597	4.71575	5585.93700	7.70000
7.15067	4.77807	5606.43500	7.70000
7.18537	4.79532	5629.64100	7.70000
7.22009	4.65730	5583.63900	7.70000
7.25479	4.53603	5604.11400	7.70000
7.28951	4.78856	5631.96200	7.70000
7.32419	4.77614	5581.34200	7.70000
7.35889	4.73623	5629.64100	7.70000
7.39359	4.77267	5604.11400	7.70000
7.42830	4.77911	5585.93700	7.70000
7.46301	4.74685	5576.74600	7.70000
7.49773	4.77523	5604.11400	7.70000
7.53242	4.77949	5636.60300	7.70000
7.56712	4.77556	5583.63900	7.70000
7.60184	4.77906	5604.11400	7.70000
7.63654	4.79198	5579.04400	7.70000
7.67125	4.78358	5579.04400	7.70000
7.70594	4.77398	5604.11400	7.70000
7.74066	4.76534	5579.04400	7.70000
7.77535	4.75729	5636.60300	7.70000
7.81006	4.75200	5546.87500	7.70000
7.84481	4.78325	5581.34200	7.70000
7.87949	4.76681	5631.96200	7.70000
7.91418	4.72181	5576.74600	7.70000
7.94889	4.78702	5599.47300	7.70000
7.98359	4.79051	5631.96200	7.70000
8.01831	4.75083	5587.87100	7.70000
8.09736	4.77098	5572.15100	7.70000
8.13207	4.79100	5587.87100	7.70000
8.16680	4.72886	5562.95900	7.70000
8.20150	4.72548	5622.67900	7.70000
8.23618	4.74264	5592.51200	7.70000
8.27090	4.79308	5615.71800	7.70000
8.30560	4.69397	5565.25700	7.70000
8.34031	4.68931	5590.19100	7.70000
8.37503	4.69515	5567.55500	7.70000
8.40971	4.66403	5620.35900	7.70000
8.44443	4.77537	5585.55100	7.70000
8.47913	4.77896	5572.15100	7.70000
8.51384	4.75439	5565.25700	7.70000
8.54854	4.72732	5622.67900	7.70000
8.58325	4.66708	5590.19100	7.70000
8.61796	4.70617	5567.55500	7.70000
8.65267	4.75053	5569.85300	7.70000
8.68735	4.70313	5587.87100	7.70000
8.72207	4.70320	5627.32100	7.70000
8.75677	4.71122	5569.85300	7.70000
8.79147	4.74602	5590.19100	7.70000
8.82618	4.78595	5565.25700	7.70000
8.86088	4.75366	5622.67900	7.70000
8.89558	4.77996	5585.55100	7.70000
8.93030	4.66989	5569.85300	7.70000
8.96498	4.74563	5567.55500	7.70000
8.99970	4.72563	5590.19100	7.70000
9.03441	4.61042	5620.35900	7.70000
9.06909	4.75358	5565.25700	7.70000
9.10381	4.77831	5567.55500	7.70000
9.13851	4.76075	5585.55100	7.70000
9.17322	4.75418	5618.03800	7.70000
9.20792	4.77250	5613.39700	7.70000
9.24263	4.77003	5583.23000	7.70000
9.27735	4.74314	5560.66100	7.70000
9.31202	4.72198	5562.95900	7.70000
9.34674	4.72835	5580.90900	7.70000
9.38143	4.77354	5556.06600	7.70000
9.41614	4.67204	5608.75600	7.70000
9.45086	4.72170	5578.58900	7.70000
9.48556	4.74544	5549.17300	7.70000
9.52026	4.77107	5606.43500	7.70000
9.55497	4.79305	5576.26800	7.70000
9.58966	4.78153	5546.87500	7.70000
9.62438	4.79320	5544.57700	7.70000
9.65908	4.78888	5625.00000	7.70000
9.69377	4.78751	5601.79400	7.70000
9.72848	4.80514	5546.87500	7.70000
9.76318	4.77381	5546.87500	7.70000
9.79788	4.77122	5569.30700	7.70000
9.83260	4.78210	5601.79400	7.70000
9.86729	4.81228	5604.11400	7.70000
9.90200	4.80128	5629.68700	7.70000
9.98029	4.78449	5573.94800	7.70000
