Time (s)   Thrust (N)   RPM  Input
0.00022	3.12450	4538.21700	7.00000
0.02663	3.15825	4595.53000	7.00000
0.06129	3.20090	4625.59000	7.00000
0.09599	3.23070	4617.18700	7.00000
0.13067	3.26816	4655.27300	7.00000
0.16540	3.28959	4672.94300	7.00000
0.20009	3.30181	4670.03100	7.00000
0.23478	3.30934	4678.81900	7.00000
0.26948	3.31488	4690.41100	7.00000
0.30419	3.32429	4678.81900	7.00000
0.33890	3.33280	4690.37600	7.00000
0.37360	3.34050	4701.96700	7.00000
0.40830	3.34484	4681.74800	7.00000
0.44298	3.35013	4710.50600	7.00000
0.47772	3.35246	4696.12700	7.00000
0.55597	3.35659	4728.00900	7.00000
0.59067	3.35671	4724.88500	7.00000
0.62536	3.35533	4696.12700	7.00000
0.66007	3.35354	4719.13300	7.00000
0.69476	3.35694	4699.00300	7.00000
0.72947	3.35386	4701.87900	7.00000
0.76417	3.34627	4724.88500	7.00000
0.79887	3.34744	4707.63000	7.00000
0.83358	3.34514	4730.90300	7.00000
0.86828	3.34861	4707.50700	7.00000
0.90298	3.35757	4707.63000	7.00000
0.93768	3.34820	4716.08200	7.00000
0.97238	3.35314	4707.63000	7.00000
1.00708	3.35628	4713.38200	7.00000
1.04178	3.35631	4710.36500	7.00000
1.07650	3.34797	4707.63000	7.00000
1.11120	3.35303	4710.50600	7.00000
1.14589	3.34829	4713.22400	7.00000
1.18060	3.34827	4736.69000	7.00000
1.21529	3.34964	4742.47600	7.00000
1.25000	3.36264	4710.50600	7.00000
1.28470	3.36162	4710.50600	7.00000
1.31940	3.36415	4701.79100	7.00000
1.35410	3.36163	4707.63000	7.00000
1.38875	3.34977	4707.63000	7.00000
1.42352	3.35518	4733.51200	7.00000
1.45821	3.35559	4736.69000	7.00000
1.49291	3.34739	4733.79600	7.00000
1.52764	3.34770	4710.36500	7.00000
1.56231	3.35193	4701.87900	7.00000
1.59700	3.35588	4701.79100	7.00000
1.63171	3.36425	4701.87900	7.00000
1.66642	3.36031	4733.79600	7.00000
1.70110	3.37241	4704.75500	7.00000
1.77956	3.36104	4704.75500	7.00000
1.81428	3.36167	4730.90300	7.00000
1.84895	3.35264	4730.63600	7.00000
1.88367	3.35129	4730.90300	7.00000
1.91836	3.35607	4701.79100	7.00000
1.95307	3.35710	4704.75500	7.00000
1.98777	3.36555	4730.90300	7.00000
2.02247	3.35305	4727.76000	7.00000
2.05717	3.41954	4733.79600	7.00000
2.18234	3.35778	4704.75500	7.00000
2.30415	3.35148	4704.75500	7.00000
2.33879	3.34506	4704.64900	7.00000
2.37348	3.34520	4710.50600	7.00000
2.40820	3.34086	4710.50600	7.00000
2.48719	3.34891	4733.51200	7.00000
2.52188	3.35813	4713.38200	7.00000
2.55660	3.35568	4716.25800	7.00000
2.63607	3.35061	4713.22400	7.00000
2.67076	3.35105	4713.38200	7.00000
2.70547	3.34421	4716.08200	7.00000
2.74016	3.34307	4736.69000	7.00000
2.77487	3.35265	4742.47600	7.00000
2.80957	3.34722	4739.26400	7.00000
2.84428	3.34861	4739.58300	7.00000
2.87897	3.35432	4710.50600	7.00000
2.91367	3.35102	4716.08200	7.00000
2.94839	3.34893	4710.50600	7.00000
2.98307	3.34672	4713.22400	7.00000
3.01778	3.34466	4716.25800	7.00000
3.05248	3.34613	4722.00900	7.00000
3.08719	3.34924	4721.79900	7.00000
3.12189	3.33427	4719.13300	7.00000
3.15659	3.33108	4724.88500	7.00000
3.19128	3.33723	4724.65700	7.00000
3.22599	3.34140	4754.05100	7.00000
3.26069	3.33698	4718.94000	7.00000
3.29538	3.33618	4722.00900	7.00000
3.33008	3.33281	4724.88500	7.00000
3.36478	3.35129	4730.37300	7.00000
3.39949	3.34265	4751.15700	7.00000
3.43419	3.33757	4719.13300	7.00000
3.46890	3.34354	4724.65700	7.00000
3.50359	3.34531	4727.76000	7.00000
3.53829	3.34609	4721.79900	7.00000
3.57300	3.34425	4727.76000	7.00000
3.65274	3.34282	4727.76000	7.00000
3.68744	3.33525	4730.37300	7.00000
3.72213	3.33931	4730.63600	7.00000
3.75684	3.34285	4733.51200	7.00000
3.79153	3.34228	4730.37300	7.00000
3.82624	3.34296	4704.64900	7.00000
3.86093	3.34235	4724.88500	7.00000
3.89566	3.33562	4733.23100	7.00000
3.93034	3.33114	4724.88500	7.00000
3.96504	3.32005	4733.23100	7.00000
3.99975	3.30927	4736.38800	7.00000
4.03445	3.32994	4739.26400	7.00000
4.06916	3.33986	4736.09000	7.00000
4.10386	3.33195	4739.26400	7.00000
4.13857	3.32997	4742.13900	7.00000
4.17326	3.33750	4713.06800	7.00000
4.20796	3.33338	4739.26400	7.00000
4.24267	3.33421	4718.75000	7.00000
4.27737	3.33579	4745.01500	7.00000
4.31208	3.33535	4750.76700	7.00000
4.34677	3.33206	4756.09700	7.00000
4.38146	3.33895	4724.65700	7.00000
4.41618	3.33164	4750.76700	7.00000
4.45088	3.33794	4733.23100	7.00000
4.48557	3.33095	4750.76700	7.00000
4.52027	3.33485	4718.75000	7.00000
4.55499	3.33083	4753.64300	7.00000
4.58968	3.33866	4727.51500	7.00000
4.62439	3.32449	4727.27200	7.00000
4.65909	3.32641	4753.64300	7.00000
4.69378	3.32939	4750.38100	7.00000
4.72849	3.33589	4724.65700	7.00000
4.76318	3.33505	4745.01500	7.00000
4.79789	3.33288	4713.06800	7.00000
4.83260	3.32905	4710.36500	7.00000
4.86730	3.32862	4750.76700	7.00000
4.90200	3.33401	4718.75000	7.00000
4.93671	3.33867	4750.76700	7.00000
4.97141	3.34153	4753.23900	7.00000
5.00651	3.33955	4693.35900	6.78750
5.08445	3.18663	4604.43000	6.78750
5.11907	3.12123	4563.67900	6.78750
5.15377	3.06037	4534.25500	6.78750
5.18846	3.01769	4500.00000	6.78750
5.22316	2.98756	4483.56300	6.78750
5.25787	2.95710	4478.83100	6.78750
5.29257	2.94556	4473.03900	6.78750
5.32726	2.93222	4416.59900	6.78750
5.40552	2.90179	4433.21100	6.78750
5.44023	2.90667	4425.73000	6.78750
5.47493	2.89947	4450.04100	6.78750
5.50963	2.89494	4440.78900	6.78750
5.54433	3.01587	4411.76400	6.78750
5.57904	2.89645	4427.08300	6.78750
5.61373	2.89531	4431.53700	6.78750
5.64845	2.89663	4428.45400	6.78750
5.68317	2.89499	4393.38200	6.78750
5.71785	2.89606	4427.08300	6.78750
5.75254	2.89638	4399.51000	6.78750
5.78723	2.89614	4425.37000	6.78750
5.82194	2.89245	4395.29200	6.78750
5.85665	2.91243	4396.44600	6.78750
5.89136	2.89506	4422.28600	6.78750
5.92605	2.89613	4425.37000	6.78750
5.96075	2.89111	4395.29200	6.78750
5.99540	2.89741	4419.20200	6.78750
6.03016	2.89365	4422.28600	6.78750
6.06486	2.89023	4419.20200	6.78750
6.09956	2.88953	4386.16000	6.78750
6.13425	2.89362	4390.31900	6.78750
6.16895	2.89470	4419.20200	6.78750
6.20364	2.88616	4419.20200	6.78750
6.23837	2.89413	4424.01900	6.78750
6.27307	2.89764	4393.38200	6.78750
6.30777	2.89142	4390.31900	6.78750
6.34247	2.89347	4419.20200	6.78750
6.37717	2.89816	4399.51000	6.78750
6.41187	2.89884	4416.11800	6.78750
6.44658	2.89482	4416.11800	6.78750
6.48127	2.89107	4411.76400	6.78750
6.51598	2.89737	4409.95000	6.78750
6.55067	2.89655	4409.95000	6.78750
6.58538	2.89372	4406.86600	6.78750
6.62007	2.89026	4408.70000	6.78750
6.65478	2.89024	4403.78300	6.78750
6.68949	2.89465	4403.78300	6.78750
6.72419	2.89523	4400.69900	6.78750
6.75888	2.89377	4405.63700	6.78750
6.79361	2.89415	4400.69900	6.78750
6.82829	2.89981	4397.61500	6.78750
6.86299	2.89444	4400.69900	6.78750
6.89770	2.89400	4396.44600	6.78750
6.93241	2.89632	4423.63400	6.78750
6.96710	2.89520	4391.44700	6.78750
7.00180	2.90006	4391.44700	6.78750
7.03651	2.89771	4393.38200	6.78750
7.07119	2.90571	4391.44700	6.78750
7.10590	2.90018	4417.42600	6.78750
7.14060	2.89499	4417.42600	6.78750
7.17531	2.89031	4419.20200	6.78750
7.21001	2.88650	4417.42600	6.78750
7.24472	2.88817	4394.53100	6.78750
7.27942	2.89602	4396.44600	6.78750
7.31411	2.88800	4391.44700	6.78750
7.34882	2.89636	4394.53100	6.78750
7.38351	2.89568	4388.36300	6.78750
7.41823	2.89309	4393.38200	6.78750
7.45292	2.89415	4423.63400	6.78750
7.48763	2.89733	4391.44700	6.78750
7.52232	2.89118	4391.44700	6.78750
7.55702	2.89306	4393.38200	6.78750
7.59172	2.89374	4391.44700	6.78750
7.62642	2.88475	4417.42600	6.78750
7.66112	2.88480	4420.53000	6.78750
7.69583	2.87849	4419.20200	6.78750
7.73053	2.88073	4394.53100	6.78750
7.76523	2.88202	4394.53100	6.78750
7.79994	2.88240	4394.53100	6.78750
7.83464	2.87996	4428.45400	6.78750
7.86934	2.88137	4397.61500	6.78750
7.90405	2.88578	4403.78300	6.78750
7.93875	2.88948	4423.63400	6.78750
7.97345	2.89513	4393.38200	6.78750
8.00817	2.88535	4397.61500	6.78750
8.04287	2.89238	4400.69900	6.78750
8.07756	2.89578	4400.69900	6.78750
8.11226	2.88795	4399.51000	6.78750
8.14703	2.89293	4403.78300	6.78750
8.26910	2.89268	4400.69900	6.78750
8.30376	2.89197	4400.69900	6.78750
8.33844	2.88849	4406.86600	6.78750
8.37314	2.88481	4402.57300	6.78750
8.40786	2.88562	4406.86600	6.78750
8.44256	2.87886	4409.95000	6.78750
8.47726	2.88180	4406.86600	6.78750
8.51195	2.88451	4408.70000	6.78750
8.54666	2.88795	4409.95000	6.78750
8.58136	2.87584	4406.86600	6.78750
8.61607	2.88156	4406.86600	6.78750
8.65077	2.88331	4414.82800	6.78750
8.68547	2.88430	4409.95000	6.78750
8.72017	2.88740	4409.95000	6.78750
8.75487	2.89120	4413.03400	6.78750
8.78957	2.89215	4416.11800	6.78750
8.82428	2.89230	4413.03400	6.78750
8.85898	2.89421	4413.03400	6.78750
8.89368	2.88608	4417.89200	6.78750
8.92839	2.88919	4413.03400	6.78750
8.96311	2.88290	4413.03400	6.78750
8.99780	2.88869	4409.95000	6.78750
9.03249	2.89704	4417.89200	6.78750
9.06721	2.89462	4406.86600	6.78750
9.10190	2.89546	4409.95000	6.78750
9.13660	2.89561	4436.05100	6.78750
9.17130	2.89797	4408.70000	6.78750
9.20599	2.89095	4400.69900	6.78750
9.24070	2.88735	4400.69900	6.78750
9.27541	2.88696	4397.61500	6.78750
9.31011	2.89637	4399.51000	6.78750
9.34483	2.89384	4394.53100	6.78750
9.42376	2.89291	4397.61500	6.78750
9.45846	2.89960	4423.63400	6.78750
9.49315	2.89788	4394.53100	6.78750
9.52786	2.89811	4378.06400	6.78750
9.56256	2.90562	4394.53100	6.78750
9.59726	2.90015	4391.44700	6.78750
9.63196	2.89610	4393.38200	6.78750
9.66667	2.89110	4388.36300	6.78750
9.70138	2.89225	4417.42600	6.78750
9.77969	2.88767	4417.42600	6.78750
9.81440	2.89071	4417.42600	6.78750
9.84910	2.89770	4396.44600	6.78750
9.88380	2.89658	4391.44700	6.78750
9.91850	2.89869	4388.36300	6.78750
9.95320	2.89536	4391.44700	6.78750
