Time (s)   Thrust (N)   RPM
0.00030	0.00000	5428.12500
0.00420	0.00000	5428.12500
0.00810	0.00000	5428.12500
0.01195	0.00000	5428.12500
0.01584	0.00000	5428.12500
0.01970	0.00000	5428.12500
0.02357	0.00000	5387.68800
0.02745	0.00000	5387.68800
0.03133	0.00000	5387.68800
0.03520	0.00000	5387.68800
0.03904	0.00000	5387.68800
0.04287	0.00000	5387.68800
0.04671	0.00000	5272.83000
0.05055	0.00000	5272.83000
0.05438	0.00000	5272.83000
0.05821	0.00000	5272.83000
0.06204	0.00000	5272.83000
0.06588	0.00000	5272.83000
0.06970	0.00000	5272.83000
0.07354	0.00000	5162.43300
0.07738	0.00000	5162.43300
0.08122	0.00000	5162.43300
0.08506	0.00000	5162.43300
0.08890	0.00000	5162.43300
0.09273	0.00000	5162.43300
0.09657	0.00000	5086.38200
0.10039	0.00000	5086.38200
0.10421	0.00000	5086.38200
0.10803	0.00000	5086.38200
0.11186	0.00000	5086.38200
0.11568	0.00000	5086.38200
0.11952	0.00000	5014.59400
0.12334	0.00000	5014.59400
0.12717	0.00000	5014.59400
0.13099	0.00000	5014.59400
0.13481	0.00000	5014.59400
0.13864	0.00000	5014.59400
0.14247	0.00000	4969.53300
0.14631	0.00000	4969.53300
0.15013	0.00000	4969.53300
0.15397	0.00000	4969.53300
0.15780	0.00000	4969.53300
0.16164	0.00000	4969.53300
0.16548	0.00000	4932.40800
0.16930	0.00000	4932.40800
0.17313	0.00000	4932.40800
0.17697	0.00000	4932.40800
0.18080	0.00000	4932.40800
0.18462	0.00000	4932.40800
0.18845	0.00000	4897.90500
0.19228	0.00000	4897.90500
0.19612	0.00000	4897.90500
0.19995	0.00000	4897.90500
0.20380	0.00000	4897.90500
0.20763	0.00000	4897.90500
0.21146	0.00000	4869.64300
0.21530	0.00000	4869.64300
0.21914	0.00000	4869.64300
0.22297	0.00000	4869.64300
0.22680	0.00000	4869.64300
0.23063	0.00000	4869.64300
0.23446	0.00000	4854.04700
0.23833	0.00000	4854.04700
0.24215	0.00000	4854.04700
0.24598	0.00000	4854.04700
0.24981	0.00000	4854.04700
0.25365	0.00000	4854.04700
0.25749	0.00000	4822.19800
0.26132	0.00000	4822.19800
0.26516	0.00000	4822.19800
0.26899	0.00000	4822.19800
0.27282	0.00000	4822.19800
0.27664	0.00000	4822.19800
0.28048	0.00000	4814.84800
0.28432	0.00000	4814.84800
0.28816	0.00000	4814.84800
0.29196	0.00000	4814.84800
0.29580	0.00000	4814.84800
0.29963	0.00000	4814.84800
0.30347	0.00000	4807.06500
0.30731	0.00000	4807.06500
0.31113	0.00000	4807.06500
0.31496	0.00000	4807.06500
0.31879	0.00000	4807.06500
0.32262	0.00000	4807.06500
0.32645	0.00000	4788.33600
0.33029	0.00000	4788.33600
0.33412	0.00000	4788.33600
0.33795	0.00000	4788.33600
0.34179	0.00000	4788.33600
0.34562	0.00000	4788.33600
0.34946	0.00000	4785.89600
0.35329	0.00000	4785.89600
0.35712	0.00000	4785.89600
0.36095	0.00000	4785.89600
0.36479	0.00000	4785.89600
0.36863	0.00000	4785.89600
0.37245	0.00000	4780.97500
0.37629	0.00000	4780.97500
0.38013	0.00000	4780.97500
0.38396	0.00000	4780.97500
0.38778	0.00000	4780.97500
0.39163	0.00000	4770.22000
0.39547	0.00000	4770.22000
0.39930	0.00000	4770.22000
0.40314	0.00000	4770.22000
0.40698	0.00000	4770.22000
0.41082	0.00000	4770.22000
0.41465	0.00000	4761.51300
0.41849	0.00000	4761.51300
0.42232	0.00000	4761.51300
0.42615	0.00000	4761.51300
0.42999	0.00000	4761.51300
0.43383	0.00000	4761.51300
0.43766	0.00000	4745.06500
0.44149	0.00000	4745.06500
0.44532	0.00000	4745.06500
0.44916	0.00000	4745.06500
0.45299	0.00000	4745.06500
0.45683	0.00000	4745.06500
0.46067	0.00000	4745.23400
0.46451	0.00000	4745.23400
0.46834	0.00000	4745.23400
0.47217	0.00000	4745.23400
0.47601	0.00000	4745.23400
0.47984	0.00000	4745.23400
0.48366	0.00000	4740.04400
0.48749	0.00000	4740.04400
0.49132	0.00000	4740.04400
0.49517	0.00000	4740.04400
0.49899	0.00000	4740.04400
0.50282	0.00000	4742.97300
0.50666	0.00000	4742.97300
0.51049	0.00000	4742.97300
0.51432	0.00000	4742.97300
0.51815	0.00000	4742.97300
0.52198	0.00000	4742.97300
0.52581	0.00000	4742.64700
0.52964	0.00000	4742.64700
0.53348	0.00000	4742.64700
0.53730	0.00000	4742.64700
0.54114	0.00000	4742.64700
0.54497	0.00000	4742.64700
0.54881	0.00000	4748.16100
0.55265	0.00000	4748.16100
0.55648	0.00000	4748.16100
0.56032	0.00000	4748.16100
0.56415	0.00000	4748.16100
0.56796	0.00000	4748.16100
0.57180	0.00000	4734.37500
0.57563	0.00000	4734.37500
0.57947	0.00000	4734.37500
0.58330	0.00000	4734.37500
0.58713	0.00000	4734.37500
0.59097	0.00000	4740.35600
0.59481	0.00000	4740.35600
0.59864	0.00000	4740.35600
0.60248	0.00000	4740.35600
0.60632	0.00000	4740.35600
0.61017	0.00000	4740.35600
0.61400	0.00000	4728.98200
0.61783	0.00000	4728.98200
0.62166	0.00000	4728.98200
0.62549	0.00000	4728.98200
0.62932	0.00000	4728.98200
0.63315	0.00000	4728.98200
0.63699	0.00000	4742.81000
0.64083	0.00000	4742.81000
0.64466	0.00000	4742.81000
0.64848	0.00000	4742.81000
0.65232	0.00000	4742.81000
0.65614	0.00000	4742.81000
0.65996	0.00000	4728.86000
0.66379	0.00000	4728.86000
0.66763	0.00000	4728.86000
0.67146	0.00000	4728.86000
0.67530	0.00000	4728.86000
0.67914	0.00000	4728.86000
0.68296	0.00000	4740.19900
0.68679	0.00000	4740.19900
0.69062	0.00000	4740.19900
0.69445	0.00000	4740.19900
0.69829	0.00000	4740.19900
0.70211	0.00000	4726.33100
0.70594	0.00000	4726.33100
0.70977	0.00000	4726.33100
0.71361	0.00000	4726.33100
0.71744	0.00000	4726.33100
0.72128	0.00000	4726.33100
0.72512	0.00000	4742.81000
0.72895	0.00000	4742.81000
0.73278	0.00000	4742.81000
0.73661	0.00000	4742.81000
0.74044	0.00000	4742.81000
0.74427	0.00000	4742.81000
0.74810	0.00000	4734.51300
0.75193	0.00000	4734.51300
0.75577	0.00000	4734.51300
0.75960	0.00000	4734.51300
0.76344	0.00000	4734.51300
0.76726	0.00000	4734.51300
0.77109	0.00000	4723.45100
0.77492	0.00000	4723.45100
0.77874	0.00000	4723.45100
0.78258	0.00000	4723.45100
0.78641	0.00000	4723.45100
0.79025	0.00000	4734.65200
0.79410	0.00000	4734.65200
0.79794	0.00000	4734.65200
0.80178	0.00000	4734.65200
0.80560	0.00000	4734.65200
0.80943	0.00000	4734.65200
0.81327	0.00000	4726.10300
0.81711	0.00000	4726.10300
0.82094	0.00000	4726.10300
0.82477	0.00000	4726.10300
0.82860	0.00000	4726.10300
0.83244	0.00000	4726.10300
0.83628	0.00000	4737.27900
0.84011	0.00000	4737.27900
0.84396	0.00000	4737.27900
0.84779	0.00000	4737.27900
0.85163	0.00000	4737.27900
0.85546	0.00000	4737.27900
0.85929	0.00000	4731.61700
0.86313	0.00000	4731.61700
0.86697	0.00000	4731.61700
0.87081	0.00000	4731.61700
0.87464	0.00000	4731.61700
0.87848	0.00000	4718.01000
0.88232	0.00000	4718.01000
0.88615	0.00000	4718.01000
0.88998	0.00000	4718.01000
0.89382	0.00000	4718.01000
0.89765	0.00000	4718.01000
0.90148	0.00000	4729.10500
0.90531	0.00000	4729.10500
0.90914	0.00000	4729.10500
0.91298	0.00000	4729.10500
0.91682	0.00000	4729.10500
0.92064	0.00000	4729.10500
0.92447	0.00000	4740.04400
0.92831	0.00000	4740.04400
0.93214	0.00000	4740.04400
0.93596	0.00000	4740.04400
0.93980	0.00000	4740.04400
0.94363	0.00000	4740.04400
0.94746	0.00000	4726.21700
0.95129	0.00000	4726.21700
0.95513	0.00000	4726.21700
0.95896	0.00000	4726.21700
0.96279	0.00000	4726.21700
0.96664	0.00000	4726.21700
0.97047	0.00000	4737.27900
0.97430	0.00000	4737.27900
0.97814	0.00000	4737.27900
0.98196	0.00000	4737.27900
0.98579	0.00000	4737.27900
0.98963	0.00000	4740.35600
0.99346	0.00000	4740.35600
0.99729	0.00000	4740.35600
1.00112	0.00000	4740.35600
1.00495	0.00000	4740.35600
1.00878	0.00000	4740.35600
1.01262	0.00000	4723.34500
1.01652	0.00000	4723.34500
1.02036	0.00000	4723.34500
1.02420	0.00000	4723.34500
1.02803	0.00000	4723.34500
1.03187	0.00000	4723.34500
1.03570	0.00000	4726.10300
1.03953	0.00000	4726.10300
1.04337	0.00000	4726.10300
1.04720	0.00000	4726.10300
1.05103	0.00000	4726.10300
1.05486	0.00000	4726.10300
1.05870	0.00000	4740.04400
1.06253	0.00000	4740.04400
1.06637	0.00000	4740.04400
1.07021	0.00000	4740.04400
1.07405	0.00000	4740.04400
1.07789	0.00000	4734.79200
1.08172	0.00000	4734.79200
1.08555	0.00000	4734.79200
1.08938	0.00000	4734.79200
1.09322	0.00000	4734.79200
1.09705	0.00000	4734.79200
1.10088	0.00000	4734.51300
1.10472	0.00000	4734.51300
1.10854	0.00000	4734.51300
1.11238	0.00000	4734.51300
1.11621	0.00000	4734.51300
1.12005	0.00000	4734.51300
1.12389	0.00000	4731.74800
1.12772	0.00000	4731.74800
1.13155	0.00000	4731.74800
1.13541	0.00000	4731.74800
1.13924	0.00000	4731.74800
1.14306	0.00000	4731.74800
1.14691	0.00000	4734.37500
1.15075	0.00000	4734.37500
1.15459	0.00000	4734.37500
1.15842	0.00000	4734.37500
1.16226	0.00000	4734.37500
1.16609	0.00000	4734.65200
1.16992	0.00000	4734.65200
1.17375	0.00000	4734.65200
1.17760	0.00000	4734.65200
1.18142	0.00000	4734.65200
1.18526	0.00000	4734.65200
1.18908	0.00000	4731.87800
1.19292	0.00000	4731.87800
1.19675	0.00000	4731.87800
1.20058	0.00000	4731.87800
1.20442	0.00000	4731.87800
1.20826	0.00000	4731.87800
1.21209	0.00000	4737.13200
1.21592	0.00000	4737.13200
1.21976	0.00000	4737.13200
1.22359	0.00000	4737.13200
1.22742	0.00000	4737.13200
1.23126	0.00000	4737.13200
1.23509	0.00000	4720.58800
1.23894	0.00000	4720.58800
1.24277	0.00000	4720.58800
1.24660	0.00000	4720.58800
1.25043	0.00000	4720.58800
1.25425	0.00000	4720.58800
1.25808	0.00000	4723.55700
1.26192	0.00000	4723.55700
1.26574	0.00000	4723.55700
1.26958	0.00000	4723.55700
1.27340	0.00000	4723.55700
1.27723	0.00000	4732.01000
1.28107	0.00000	4732.01000
1.28490	0.00000	4732.01000
1.28873	0.00000	4732.01000
1.29256	0.00000	4732.01000
1.29640	0.00000	4732.01000
1.30023	0.00000	4728.86000
1.30406	0.00000	4728.86000
1.30788	0.00000	4728.86000
1.31171	0.00000	4728.86000
1.31554	0.00000	4728.86000
1.31939	0.00000	4728.86000
1.32322	0.00000	4737.27900
1.32705	0.00000	4737.27900
1.33090	0.00000	4737.27900
1.33473	0.00000	4737.27900
1.33856	0.00000	4737.27900
1.34240	0.00000	4737.27900
1.34623	0.00000	4734.37500
1.35006	0.00000	4734.37500
1.35390	0.00000	4734.37500
1.35774	0.00000	4734.37500
1.36158	0.00000	4734.37500
1.36541	0.00000	4737.57400
1.36925	0.00000	4737.57400
1.37309	0.00000	4737.57400
1.37693	0.00000	4737.57400
1.38076	0.00000	4737.57400
1.38459	0.00000	4737.57400
1.38841	0.00000	4726.21700
1.39225	0.00000	4726.21700
1.39607	0.00000	4726.21700
1.39991	0.00000	4726.21700
1.40374	0.00000	4726.21700
1.40758	0.00000	4726.21700
1.41141	0.00000	4731.61700
1.41524	0.00000	4731.61700
1.41908	0.00000	4731.61700
1.42292	0.00000	4731.61700
1.42675	0.00000	4731.61700
1.43058	0.00000	4731.61700
1.43440	0.00000	4731.61700
1.43823	0.00000	4731.61700
1.44207	0.00000	4731.61700
1.44590	0.00000	4731.61700
1.44973	0.00000	4731.61700
1.45356	0.00000	4731.61700
1.45738	0.00000	4740.04400
1.46121	0.00000	4740.04400
1.46505	0.00000	4740.04400
1.46889	0.00000	4740.04400
1.47272	0.00000	4740.04400
1.47655	0.00000	4734.79200
1.48038	0.00000	4734.79200
1.48421	0.00000	4734.79200
1.48805	0.00000	4734.79200
1.49189	0.00000	4734.79200
1.49573	0.00000	4734.79200
1.49956	0.00000	4737.13200
1.50338	0.00000	4737.13200
1.50722	0.00000	4737.13200
1.51106	0.00000	4737.13200
1.51489	0.00000	4737.13200
1.51872	0.00000	4737.13200
1.52256	0.00000	4737.27900
1.52640	0.00000	4737.27900
1.53023	0.00000	4737.27900
1.53406	0.00000	4737.27900
1.53790	0.00000	4737.27900
1.54173	0.00000	4737.27900
1.54557	0.00000	4734.51300
1.54940	0.00000	4734.51300
1.55323	0.00000	4734.51300
1.55706	0.00000	4734.51300
1.56090	0.00000	4734.51300
1.56473	0.00000	4734.79200
1.56856	0.00000	4734.79200
1.57239	0.00000	4734.79200
1.57622	0.00000	4734.79200
1.58005	0.00000	4734.79200
1.58388	0.00000	4734.79200
1.58772	0.00000	4728.98200
1.59155	0.00000	4728.98200
1.59538	0.00000	4728.98200
1.59921	0.00000	4728.98200
1.60304	0.00000	4728.98200
1.60688	0.00000	4728.98200
1.61071	0.00000	4731.74800
1.61454	0.00000	4731.74800
1.61837	0.00000	4731.74800
1.62221	0.00000	4731.74800
1.62604	0.00000	4731.74800
1.62988	0.00000	4731.74800
1.63370	0.00000	4734.51300
1.63754	0.00000	4734.51300
1.64136	0.00000	4734.51300
1.64519	0.00000	4734.51300
1.64901	0.00000	4734.51300
1.65285	0.00000	4726.44700
1.65669	0.00000	4726.44700
1.66053	0.00000	4726.44700
1.66437	0.00000	4726.44700
1.66820	0.00000	4726.44700
1.67203	0.00000	4726.44700
1.67587	0.00000	4717.92000
1.67969	0.00000	4717.92000
1.68352	0.00000	4717.92000
1.68735	0.00000	4717.92000
1.69118	0.00000	4717.92000
1.69502	0.00000	4717.92000
1.69885	0.00000	4726.21700
1.70268	0.00000	4726.21700
1.70651	0.00000	4726.21700
1.71034	0.00000	4726.21700
1.71416	0.00000	4726.21700
1.71800	0.00000	4726.21700
1.72183	0.00000	4726.21700
1.72566	0.00000	4726.21700
1.72949	0.00000	4726.21700
1.73332	0.00000	4726.21700
1.73714	0.00000	4726.21700
1.74097	0.00000	4726.21700
1.74480	0.00000	4732.01000
1.74863	0.00000	4732.01000
1.75247	0.00000	4732.01000
1.75631	0.00000	4732.01000
1.76016	0.00000	4732.01000
1.76396	0.00000	4734.79200
1.76779	0.00000	4734.79200
1.77162	0.00000	4734.79200
1.77544	0.00000	4734.79200
1.77927	0.00000	4734.79200
1.78310	0.00000	4734.79200
1.78694	0.00000	4726.21700
1.79078	0.00000	4726.21700
1.79461	0.00000	4726.21700
1.79844	0.00000	4726.21700
1.80228	0.00000	4726.21700
1.80611	0.00000	4726.21700
1.80996	0.00000	4740.04400
1.81379	0.00000	4740.04400
1.81763	0.00000	4740.04400
1.82146	0.00000	4740.04400
1.82529	0.00000	4740.04400
1.82912	0.00000	4740.04400
1.83295	0.00000	4726.33100
1.83679	0.00000	4726.33100
1.84062	0.00000	4726.33100
1.84445	0.00000	4726.33100
1.84829	0.00000	4726.33100
1.85211	0.00000	4726.44700
1.85595	0.00000	4726.44700
1.85979	0.00000	4726.44700
1.86363	0.00000	4726.44700
1.86746	0.00000	4726.44700
1.87129	0.00000	4726.44700
1.87512	0.00000	4728.98200
1.87895	0.00000	4728.98200
1.88278	0.00000	4728.98200
1.88661	0.00000	4728.98200
1.89044	0.00000	4728.98200
1.89427	0.00000	4728.98200
1.89810	0.00000	4723.45100
1.90193	0.00000	4723.45100
1.90577	0.00000	4723.45100
1.90960	0.00000	4723.45100
1.91344	0.00000	4723.45100
1.91727	0.00000	4723.45100
1.92111	0.00000	4717.83100
1.92494	0.00000	4717.83100
1.92877	0.00000	4717.83100
1.93260	0.00000	4717.83100
1.93644	0.00000	4717.83100
1.94027	0.00000	4718.01000
1.94410	0.00000	4718.01000
1.94793	0.00000	4718.01000
1.95177	0.00000	4718.01000
1.95560	0.00000	4718.01000
1.95943	0.00000	4718.01000
1.96326	0.00000	4720.78400
1.96710	0.00000	4720.78400
1.97094	0.00000	4720.78400
1.97476	0.00000	4720.78400
1.97860	0.00000	4720.78400
1.98243	0.00000	4720.78400
1.98626	0.00000	4723.45100
1.99011	0.00000	4723.45100
1.99394	0.00000	4723.45100
1.99778	0.00000	4723.45100
2.00160	0.00000	4723.45100
2.00544	0.00000	4723.45100
2.00927	0.00000	4731.74800
2.01310	0.00000	4731.74800
2.01698	0.00000	4731.74800
2.02083	0.00000	4731.74800
2.02466	0.00000	4731.74800
2.02850	0.00000	4718.10100
2.03232	0.00000	4718.10100
2.03616	0.00000	4718.10100
2.03996	0.00000	4718.10100
2.04379	0.00000	4718.10100
2.04762	0.00000	4718.10100
2.05145	0.00000	4731.87800
2.05529	0.00000	4731.87800
2.05912	0.00000	4731.87800
2.06295	0.00000	4731.87800
2.06680	0.00000	4731.87800
2.07063	0.00000	4731.87800
2.07445	0.00000	4728.98200
2.07829	0.00000	4728.98200
2.08213	0.00000	4728.98200
2.08596	0.00000	4728.98200
2.08979	0.00000	4728.98200
2.09363	0.00000	4728.98200
2.09746	0.00000	4734.51300
2.10129	0.00000	4734.51300
2.10512	0.00000	4734.51300
2.10896	0.00000	4734.51300
2.11279	0.00000	4734.51300
2.11663	0.00000	4734.51300
2.12045	0.00000	4734.79200
2.12429	0.00000	4734.79200
2.12812	0.00000	4734.79200
2.13196	0.00000	4734.79200
2.13579	0.00000	4734.79200
2.13963	0.00000	4732.01000
2.14346	0.00000	4732.01000
2.14729	0.00000	4732.01000
2.15112	0.00000	4732.01000
2.15495	0.00000	4732.01000
2.15879	0.00000	4732.01000
2.16262	0.00000	4734.51300
2.16645	0.00000	4734.51300
2.17030	0.00000	4734.51300
2.17413	0.00000	4734.51300
2.17796	0.00000	4734.51300
2.18180	0.00000	4734.51300
2.18563	0.00000	4723.34500
2.18947	0.00000	4723.34500
2.19330	0.00000	4723.34500
2.19713	0.00000	4723.34500
2.20097	0.00000	4723.34500
2.20480	0.00000	4723.34500
2.20863	0.00000	4720.68500
2.21246	0.00000	4720.68500
2.21629	0.00000	4720.68500
2.22012	0.00000	4720.68500
2.22396	0.00000	4720.68500
2.22779	0.00000	4732.01000
2.23163	0.00000	4732.01000
2.23546	0.00000	4732.01000
2.23930	0.00000	4732.01000
2.24315	0.00000	4732.01000
2.24699	0.00000	4732.01000
2.25082	0.00000	4734.37500
2.25465	0.00000	4734.37500
2.25848	0.00000	4734.37500
2.26231	0.00000	4734.37500
2.26614	0.00000	4734.37500
2.26998	0.00000	4734.37500
2.27383	0.00000	4715.07300
2.27765	0.00000	4715.07300
2.28148	0.00000	4715.07300
2.28532	0.00000	4715.07300
2.28915	0.00000	4715.07300
2.29297	0.00000	4715.07300
2.29680	0.00000	4728.98200
2.30064	0.00000	4728.98200
2.30447	0.00000	4728.98200
2.30829	0.00000	4728.98200
2.31212	0.00000	4728.98200
2.31596	0.00000	4732.01000
2.31981	0.00000	4732.01000
2.32364	0.00000	4732.01000
2.32746	0.00000	4732.01000
2.33129	0.00000	4732.01000
2.33512	0.00000	4732.01000
2.33895	0.00000	4740.35600
2.34278	0.00000	4740.35600
2.34661	0.00000	4740.35600
2.35043	0.00000	4740.35600
2.35426	0.00000	4740.35600
2.35810	0.00000	4740.35600
2.36192	0.00000	4728.98200
2.36576	0.00000	4728.98200
2.36959	0.00000	4728.98200
2.37342	0.00000	4728.98200
2.37724	0.00000	4728.98200
2.38108	0.00000	4728.98200
2.38491	0.00000	4720.58800
2.38873	0.00000	4720.58800
2.39257	0.00000	4720.58800
2.39641	0.00000	4720.58800
2.40025	0.00000	4720.58800
2.40408	0.00000	4720.58800
2.40790	0.00000	4734.65200
2.41173	0.00000	4734.65200
2.41557	0.00000	4734.65200
2.41941	0.00000	4734.65200
2.42324	0.00000	4734.65200
2.42707	0.00000	4726.44700
2.43091	0.00000	4726.44700
2.43474	0.00000	4726.44700
2.43857	0.00000	4726.44700
2.44240	0.00000	4726.44700
2.44623	0.00000	4726.44700
2.45006	0.00000	4717.83100
2.45389	0.00000	4717.83100
2.45772	0.00000	4717.83100
2.46156	0.00000	4717.83100
2.46539	0.00000	4717.83100
2.46923	0.00000	4717.83100
2.47307	0.00000	4720.68500
2.47690	0.00000	4720.68500
2.48073	0.00000	4720.68500
2.48457	0.00000	4720.68500
2.48841	0.00000	4720.68500
2.49224	0.00000	4720.68500
2.49607	0.00000	4723.45100
2.49990	0.00000	4723.45100
2.50375	0.00000	4723.45100
2.50758	0.00000	4723.45100
2.51140	0.00000	4723.45100
2.51523	0.00000	4740.35600
2.51908	0.00000	4740.35600
2.52293	0.00000	4740.35600
2.52677	0.00000	4740.35600
2.53060	0.00000	4740.35600
2.53443	0.00000	4740.35600
2.53826	0.00000	4726.10300
2.54208	0.00000	4726.10300
2.54591	0.00000	4726.10300
2.54975	0.00000	4726.10300
2.55359	0.00000	4726.10300
2.55742	0.00000	4726.10300
2.56124	0.00000	4720.68500
2.56508	0.00000	4720.68500
2.56891	0.00000	4720.68500
2.57274	0.00000	4720.68500
2.57657	0.00000	4720.68500
2.58040	0.00000	4720.68500
2.58423	0.00000	4728.98200
2.58806	0.00000	4728.98200
2.59189	0.00000	4728.98200
2.59572	0.00000	4728.98200
2.59955	0.00000	4728.98200
2.60338	0.00000	4729.22800
2.60722	0.00000	4729.22800
2.61105	0.00000	4729.22800
2.61488	0.00000	4729.22800
2.61871	0.00000	4729.22800
2.62255	0.00000	4729.22800
2.62639	0.00000	4734.65200
2.63022	0.00000	4734.65200
2.63405	0.00000	4734.65200
2.63788	0.00000	4734.65200
2.64171	0.00000	4734.65200
2.64554	0.00000	4734.65200
2.64937	0.00000	4728.98200
2.65320	0.00000	4728.98200
2.65703	0.00000	4728.98200
2.66087	0.00000	4728.98200
2.66470	0.00000	4728.98200
2.66854	0.00000	4728.98200
2.67238	0.00000	4731.74800
2.67621	0.00000	4731.74800
2.68005	0.00000	4731.74800
2.68388	0.00000	4731.74800
2.68773	0.00000	4731.74800
2.69156	0.00000	4734.65200
2.69538	0.00000	4734.65200
2.69921	0.00000	4734.65200
2.70305	0.00000	4734.65200
2.70689	0.00000	4734.65200
2.71072	0.00000	4734.65200
2.71456	0.00000	4726.33100
2.71838	0.00000	4726.33100
2.72221	0.00000	4726.33100
2.72605	0.00000	4726.33100
2.72988	0.00000	4726.33100
2.73371	0.00000	4726.33100
2.73756	0.00000	4742.81000
2.74138	0.00000	4742.81000
2.74521	0.00000	4742.81000
2.74904	0.00000	4742.81000
2.75287	0.00000	4742.81000
2.75670	0.00000	4742.81000
2.76053	0.00000	4726.10300
2.76436	0.00000	4726.10300
2.76818	0.00000	4726.10300
2.77202	0.00000	4726.10300
2.77586	0.00000	4726.10300
2.77969	0.00000	4726.10300
2.78351	0.00000	4717.83100
2.78735	0.00000	4717.83100
2.79119	0.00000	4717.83100
2.79503	0.00000	4717.83100
2.79886	0.00000	4717.83100
2.80270	0.00000	4740.35600
2.80654	0.00000	4740.35600
2.81037	0.00000	4740.35600
2.81420	0.00000	4740.35600
2.81803	0.00000	4740.35600
2.82186	0.00000	4740.35600
2.82569	0.00000	4728.98200
2.82952	0.00000	4728.98200
2.83335	0.00000	4728.98200
2.83718	0.00000	4728.98200
2.84102	0.00000	4728.98200
2.84485	0.00000	4728.98200
2.84868	0.00000	4726.21700
2.85251	0.00000	4726.21700
2.85635	0.00000	4726.21700
2.86018	0.00000	4726.21700
2.86402	0.00000	4726.21700
2.86785	0.00000	4726.21700
2.87168	0.00000	4728.86000
2.87552	0.00000	4728.86000
2.87936	0.00000	4728.86000
2.88319	0.00000	4728.86000
2.88702	0.00000	4728.86000
2.89086	0.00000	4734.79200
2.89468	0.00000	4734.79200
2.89851	0.00000	4734.79200
2.90235	0.00000	4734.79200
2.90619	0.00000	4734.79200
2.91001	0.00000	4734.79200
2.91386	0.00000	4745.74700
2.91769	0.00000	4745.74700
2.92153	0.00000	4745.74700
2.92536	0.00000	4745.74700
2.92919	0.00000	4745.74700
2.93302	0.00000	4745.74700
2.93685	0.00000	4734.51300
2.94069	0.00000	4734.51300
2.94452	0.00000	4734.51300
2.94836	0.00000	4734.51300
2.95220	0.00000	4734.51300
2.95603	0.00000	4734.51300
2.95986	0.00000	4737.13200
2.96369	0.00000	4737.13200
2.96753	0.00000	4737.13200
2.97136	0.00000	4737.13200
2.97519	0.00000	4737.13200
2.97902	0.00000	4737.13200
2.98284	0.00000	4717.83100
2.98667	0.00000	4717.83100
2.99051	0.00000	4717.83100
2.99434	0.00000	4717.83100
2.99816	0.00000	4717.83100
3.00199	0.00000	4729.22800
3.00584	0.00000	4729.22800
3.00968	0.00000	4729.22800
3.01352	0.00000	4729.22800
3.01738	0.00000	4729.22800
3.02122	0.00000	4729.22800
3.02506	0.00000	4726.10300
3.02889	0.00000	4726.10300
3.03272	0.00000	4726.10300
3.03656	0.00000	4726.10300
3.04039	0.00000	4726.10300
3.04422	0.00000	4726.10300
3.04807	0.00000	4740.04400
3.05189	0.00000	4740.04400
3.05573	0.00000	4740.04400
3.05957	0.00000	4740.04400
3.06340	0.00000	4740.04400
3.06724	0.00000	4740.04400
3.07107	0.00000	4734.51300
3.07490	0.00000	4734.51300
3.07874	0.00000	4734.51300
3.08258	0.00000	4734.51300
3.08641	0.00000	4734.51300
3.09026	0.00000	4734.65200
3.09411	0.00000	4734.65200
3.09795	0.00000	4734.65200
3.10177	0.00000	4734.65200
3.10561	0.00000	4734.65200
3.10945	0.00000	4734.65200
3.11329	0.00000	4745.57500
3.11711	0.00000	4745.57500
3.12095	0.00000	4745.57500
3.12478	0.00000	4745.57500
3.12861	0.00000	4745.57500
3.13244	0.00000	4745.57500
3.13626	0.00000	4728.86000
3.14010	0.00000	4728.86000
3.14393	0.00000	4728.86000
3.14777	0.00000	4728.86000
3.15159	0.00000	4728.86000
3.15544	0.00000	4728.86000
3.15926	0.00000	4720.58800
3.16310	0.00000	4720.58800
3.16694	0.00000	4720.58800
3.17077	0.00000	4720.58800
3.17460	0.00000	4720.58800
3.17843	0.00000	4737.57400
3.18226	0.00000	4737.57400
3.18608	0.00000	4737.57400
3.18991	0.00000	4737.57400
3.19375	0.00000	4737.57400
3.19759	0.00000	4737.57400
3.20142	0.00000	4731.87800
3.20525	0.00000	4731.87800
3.20908	0.00000	4731.87800
3.21291	0.00000	4731.87800
3.21673	0.00000	4731.87800
3.22056	0.00000	4731.87800
3.22441	0.00000	4723.34500
3.22824	0.00000	4723.34500
3.23208	0.00000	4723.34500
3.23591	0.00000	4723.34500
3.23975	0.00000	4723.34500
3.24359	0.00000	4723.34500
3.24742	0.00000	4734.37500
3.25125	0.00000	4734.37500
3.25508	0.00000	4734.37500
3.25891	0.00000	4734.37500
3.26274	0.00000	4734.37500
3.26659	0.00000	4734.37500
3.27041	0.00000	4726.21700
3.27424	0.00000	4726.21700
3.27807	0.00000	4726.21700
3.28191	0.00000	4726.21700
3.28575	0.00000	4726.21700
3.28958	0.00000	4732.01000
3.29342	0.00000	4732.01000
3.29725	0.00000	4732.01000
3.30108	0.00000	4732.01000
3.30492	0.00000	4732.01000
3.30876	0.00000	4732.01000
3.31258	0.00000	4737.27900
3.31642	0.00000	4737.27900
3.32025	0.00000	4737.27900
3.32408	0.00000	4737.27900
3.32791	0.00000	4737.27900
3.33175	0.00000	4737.27900
3.33560	0.00000	4734.37500
3.33944	0.00000	4734.37500
3.34327	0.00000	4734.37500
3.34711	0.00000	4734.37500
3.35093	0.00000	4734.37500
3.35476	0.00000	4734.37500
3.35860	0.00000	4737.27900
3.36243	0.00000	4737.27900
3.36626	0.00000	4737.27900
3.37009	0.00000	4737.27900
3.37393	0.00000	4737.27900
3.37776	0.00000	4732.01000
3.38159	0.00000	4732.01000
3.38542	0.00000	4732.01000
3.38925	0.00000	4732.01000
3.39308	0.00000	4732.01000
3.39692	0.00000	4732.01000
3.40076	0.00000	4726.21700
3.40458	0.00000	4726.21700
3.40842	0.00000	4726.21700
3.41226	0.00000	4726.21700
3.41610	0.00000	4726.21700
3.41993	0.00000	4726.21700
3.42377	0.00000	4726.10300
3.42760	0.00000	4726.10300
3.43142	0.00000	4726.10300
3.43527	0.00000	4726.10300
3.43910	0.00000	4726.10300
3.44293	0.00000	4726.10300
3.44676	0.00000	4723.45100
3.45058	0.00000	4723.45100
3.45441	0.00000	4723.45100
3.45824	0.00000	4723.45100
3.46207	0.00000	4723.45100
3.46590	0.00000	4732.01000
3.46972	0.00000	4732.01000
3.47356	0.00000	4732.01000
3.47739	0.00000	4732.01000
3.48121	0.00000	4732.01000
3.48505	0.00000	4732.01000
3.48889	0.00000	4734.65200
3.49272	0.00000	4734.65200
3.49656	0.00000	4734.65200
3.50040	0.00000	4734.65200
3.50423	0.00000	4734.65200
3.50807	0.00000	4734.65200
3.51190	0.00000	4737.27900
3.51574	0.00000	4737.27900
3.51957	0.00000	4737.27900
3.52340	0.00000	4737.27900
3.52723	0.00000	4737.27900
3.53106	0.00000	4737.27900
3.53490	0.00000	4726.10300
3.53874	0.00000	4726.10300
3.54257	0.00000	4726.10300
3.54640	0.00000	4726.10300
3.55024	0.00000	4726.10300
3.55407	0.00000	4726.10300
3.55789	0.00000	4723.45100
3.56173	0.00000	4723.45100
3.56556	0.00000	4723.45100
3.56939	0.00000	4723.45100
3.57322	0.00000	4723.45100
3.57705	0.00000	4726.33100
3.58089	0.00000	4726.33100
3.58472	0.00000	4726.33100
3.58856	0.00000	4726.33100
3.59240	0.00000	4726.33100
3.59622	0.00000	4726.33100
3.60006	0.00000	4717.83100
3.60389	0.00000	4717.83100
3.60772	0.00000	4717.83100
3.61156	0.00000	4717.83100
3.61539	0.00000	4717.83100
3.61922	0.00000	4717.83100
3.62305	0.00000	4734.37500
3.62689	0.00000	4734.37500
3.63073	0.00000	4734.37500
3.63456	0.00000	4734.37500
3.63839	0.00000	4734.37500
3.64221	0.00000	4734.37500
3.64604	0.00000	4731.61700
3.64988	0.00000	4731.61700
3.65371	0.00000	4731.61700
3.65754	0.00000	4731.61700
3.66136	0.00000	4731.61700
3.66520	0.00000	4726.33100
3.66902	0.00000	4726.33100
3.67285	0.00000	4726.33100
3.67669	0.00000	4726.33100
3.68052	0.00000	4726.33100
3.68434	0.00000	4726.33100
3.68817	0.00000	4726.33100
3.69201	0.00000	4726.33100
3.69584	0.00000	4726.33100
3.69967	0.00000	4726.33100
3.70350	0.00000	4726.33100
3.70733	0.00000	4726.33100
3.71116	0.00000	4726.10300
3.71499	0.00000	4726.10300
3.71883	0.00000	4726.10300
3.72267	0.00000	4726.10300
3.72649	0.00000	4726.10300
3.73033	0.00000	4726.10300
3.73416	0.00000	4723.34500
3.73799	0.00000	4723.34500
3.74184	0.00000	4723.34500
3.74566	0.00000	4723.34500
3.74949	0.00000	4723.34500
3.75333	0.00000	4723.34500
3.75716	0.00000	4731.74800
3.76099	0.00000	4731.74800
3.76483	0.00000	4731.74800
3.76865	0.00000	4731.74800
3.77249	0.00000	4731.74800
3.77633	0.00000	4723.55700
3.78018	0.00000	4723.55700
3.78401	0.00000	4723.55700
3.78786	0.00000	4723.55700
3.79168	0.00000	4723.55700
3.79551	0.00000	4723.55700
3.79934	0.00000	4740.04400
3.80317	0.00000	4740.04400
3.80700	0.00000	4740.04400
3.81083	0.00000	4740.04400
3.81467	0.00000	4740.04400
3.81850	0.00000	4740.04400
3.82233	0.00000	4728.98200
3.82616	0.00000	4728.98200
3.82999	0.00000	4728.98200
3.83382	0.00000	4728.98200
3.83766	0.00000	4728.98200
3.84149	0.00000	4728.98200
3.84533	0.00000	4734.51300
3.84916	0.00000	4734.51300
3.85300	0.00000	4734.51300
3.85683	0.00000	4734.51300
3.86065	0.00000	4734.51300
3.86449	0.00000	4734.79200
3.86833	0.00000	4734.79200
3.87217	0.00000	4734.79200
3.87596	0.00000	4734.79200
3.87980	0.00000	4734.79200
3.88363	0.00000	4734.79200
3.88746	0.00000	4728.86000
3.89130	0.00000	4728.86000
3.89514	0.00000	4728.86000
3.89897	0.00000	4728.86000
3.90280	0.00000	4728.86000
3.90664	0.00000	4728.86000
3.91048	0.00000	4737.13200
3.91431	0.00000	4737.13200
3.91813	0.00000	4737.13200
3.92196	0.00000	4737.13200
3.92579	0.00000	4737.13200
3.92962	0.00000	4737.13200
3.93344	0.00000	4731.61700
3.93728	0.00000	4731.61700
3.94110	0.00000	4731.61700
3.94493	0.00000	4731.61700
3.94876	0.00000	4731.61700
3.95258	0.00000	4731.61700
3.95641	0.00000	4720.68500
3.96025	0.00000	4720.68500
3.96409	0.00000	4720.68500
3.96793	0.00000	4720.68500
3.97177	0.00000	4720.68500
3.97560	0.00000	4740.19900
3.97945	0.00000	4740.19900
3.98329	0.00000	4740.19900
3.98712	0.00000	4740.19900
3.99095	0.00000	4740.19900
3.99478	0.00000	4740.19900
3.99861	0.00000	4731.74800
4.00245	0.00000	4731.74800
4.00629	0.00000	4731.74800
4.01013	0.00000	4731.74800
4.01400	0.00000	4731.74800
4.01784	0.00000	4731.74800
4.02166	0.00000	4740.04400
4.02549	0.00000	4740.04400
4.02934	0.00000	4740.04400
4.03317	0.00000	4740.04400
4.03700	0.00000	4740.04400
4.04083	0.00000	4740.04400
4.04466	0.00000	4731.74800
4.04849	0.00000	4731.74800
4.05232	0.00000	4731.74800
4.05616	0.00000	4731.74800
4.05996	0.00000	4731.74800
4.06380	0.00000	4737.57400
4.06764	0.00000	4737.57400
4.07149	0.00000	4737.57400
4.07532	0.00000	4737.57400
4.07915	0.00000	4737.57400
4.08298	0.00000	4737.57400
4.08682	0.00000	4723.34500
4.09067	0.00000	4723.34500
4.09451	0.00000	4723.34500
4.09834	0.00000	4723.34500
4.10217	0.00000	4723.34500
4.10600	0.00000	4723.34500
4.10984	0.00000	4726.10300
4.11367	0.00000	4726.10300
4.11750	0.00000	4726.10300
4.12135	0.00000	4726.10300
4.12518	0.00000	4726.10300
4.12901	0.00000	4726.10300
4.13286	0.00000	4734.37500
4.13670	0.00000	4734.37500
4.14053	0.00000	4734.37500
4.14437	0.00000	4734.37500
4.14821	0.00000	4734.37500
4.15204	0.00000	4720.78400
4.15586	0.00000	4720.78400
4.15970	0.00000	4720.78400
4.16354	0.00000	4720.78400
4.16738	0.00000	4720.78400
4.17120	0.00000	4720.78400
4.17504	0.00000	4731.74800
4.17888	0.00000	4731.74800
4.18272	0.00000	4731.74800
4.18656	0.00000	4731.74800
4.19038	0.00000	4731.74800
4.19422	0.00000	4731.74800
4.19805	0.00000	4731.61700
4.20189	0.00000	4731.61700
4.20572	0.00000	4731.61700
4.20957	0.00000	4731.61700
4.21341	0.00000	4731.61700
4.21724	0.00000	4731.61700
4.22108	0.00000	4737.27900
4.22490	0.00000	4737.27900
4.22874	0.00000	4737.27900
4.23257	0.00000	4737.27900
4.23640	0.00000	4737.27900
4.24023	0.00000	4737.27900
4.24406	0.00000	4731.87800
4.24789	0.00000	4731.87800
4.25174	0.00000	4731.87800
4.25557	0.00000	4731.87800
4.25940	0.00000	4731.87800
4.26323	0.00000	4720.78400
4.26707	0.00000	4720.78400
4.27091	0.00000	4720.78400
4.27474	0.00000	4720.78400
4.27858	0.00000	4720.78400
4.28241	0.00000	4720.78400
4.28625	0.00000	4723.45100
4.29007	0.00000	4723.45100
4.29390	0.00000	4723.45100
4.29771	0.00000	4723.45100
4.30153	0.00000	4723.45100
4.30535	0.00000	4723.45100
4.30918	0.00000	4731.74800
4.31299	0.00000	4731.74800
4.31682	0.00000	4731.74800
4.32064	0.00000	4731.74800
4.32447	0.00000	4731.74800
4.32830	0.00000	4731.74800
4.33211	0.00000	4717.92000
4.33593	0.00000	4717.92000
4.33976	0.00000	4717.92000
4.34358	0.00000	4717.92000
4.34739	0.00000	4717.92000
4.35121	0.00000	4726.44700
4.35503	0.00000	4726.44700
4.35884	0.00000	4726.44700
4.36266	0.00000	4726.44700
4.36648	0.00000	4726.44700
4.37030	0.00000	4726.44700
4.37411	0.00000	4726.21700
4.37793	0.00000	4726.21700
4.38175	0.00000	4726.21700
4.38558	0.00000	4726.21700
4.38942	0.00000	4726.21700
4.39325	0.00000	4726.21700
4.39708	0.00000	4726.21700
4.40092	0.00000	4726.21700
4.40476	0.00000	4726.21700
4.40858	0.00000	4726.21700
4.41241	0.00000	4726.21700
4.41626	0.00000	4726.21700
4.42009	0.00000	4728.98200
4.42392	0.00000	4728.98200
4.42775	0.00000	4728.98200
4.43159	0.00000	4728.98200
4.43542	0.00000	4728.98200
4.43925	0.00000	4723.66400
4.44308	0.00000	4723.66400
4.44691	0.00000	4723.66400
4.45074	0.00000	4723.66400
4.45456	0.00000	4723.66400
4.45840	0.00000	4723.66400
4.46222	0.00000	4718.01000
4.46605	0.00000	4718.01000
4.46989	0.00000	4718.01000
4.47371	0.00000	4718.01000
4.47754	0.00000	4718.01000
4.48138	0.00000	4718.01000
4.48521	0.00000	4723.45100
4.48906	0.00000	4723.45100
4.49288	0.00000	4723.45100
4.49671	0.00000	4723.45100
4.50054	0.00000	4723.45100
4.50437	0.00000	4723.45100
4.50820	0.00000	4728.98200
4.51203	0.00000	4728.98200
4.51585	0.00000	4728.98200
4.51969	0.00000	4728.98200
4.52352	0.00000	4728.98200
4.52735	0.00000	4728.98200
4.53117	0.00000	4723.55700
4.53500	0.00000	4723.55700
4.53883	0.00000	4723.55700
4.54266	0.00000	4723.55700
4.54649	0.00000	4723.55700
4.55032	0.00000	4729.22800
4.55416	0.00000	4729.22800
4.55799	0.00000	4729.22800
4.56181	0.00000	4729.22800
4.56564	0.00000	4729.22800
4.56947	0.00000	4729.22800
4.57332	0.00000	4740.04400
4.57714	0.00000	4740.04400
4.58097	0.00000	4740.04400
4.58479	0.00000	4740.04400
4.58862	0.00000	4740.04400
4.59245	0.00000	4740.04400
4.59628	0.00000	4717.92000
4.60012	0.00000	4717.92000
4.60394	0.00000	4717.92000
4.60777	0.00000	4717.92000
4.61160	0.00000	4717.92000
4.61544	0.00000	4717.92000
4.61927	0.00000	4723.45100
4.62310	0.00000	4723.45100
4.62693	0.00000	4723.45100
4.63076	0.00000	4723.45100
4.63459	0.00000	4723.45100
4.63842	0.00000	4723.66400
4.64226	0.00000	4723.66400
4.64608	0.00000	4723.66400
4.64992	0.00000	4723.66400
4.65375	0.00000	4723.66400
4.65759	0.00000	4723.66400
4.66142	0.00000	4723.45100
4.66525	0.00000	4723.45100
4.66908	0.00000	4723.45100
4.67292	0.00000	4723.45100
4.67674	0.00000	4723.45100
4.68057	0.00000	4723.45100
4.68440	0.00000	4715.07300
4.68824	0.00000	4715.07300
4.69207	0.00000	4715.07300
4.69590	0.00000	4715.07300
4.69972	0.00000	4715.07300
4.70355	0.00000	4715.07300
4.70739	0.00000	4720.68500
4.71122	0.00000	4720.68500
4.71505	0.00000	4720.68500
4.71888	0.00000	4720.68500
4.72273	0.00000	4720.68500
4.72655	0.00000	4726.44700
4.73038	0.00000	4726.44700
4.73421	0.00000	4726.44700
4.73804	0.00000	4726.44700
4.74187	0.00000	4726.44700
4.74570	0.00000	4726.44700
4.74953	0.00000	4718.01000
4.75335	0.00000	4718.01000
4.75718	0.00000	4718.01000
4.76102	0.00000	4718.01000
4.76485	0.00000	4718.01000
4.76868	0.00000	4718.01000
4.77252	0.00000	4726.21700
4.77636	0.00000	4726.21700
4.78019	0.00000	4726.21700
4.78402	0.00000	4726.21700
4.78785	0.00000	4726.21700
4.79168	0.00000	4726.21700
4.79553	0.00000	4717.83100
4.79936	0.00000	4717.83100
4.80319	0.00000	4717.83100
4.80703	0.00000	4717.83100
4.81086	0.00000	4717.83100
4.81469	0.00000	4717.83100
4.81851	0.00000	4718.01000
4.82234	0.00000	4718.01000
4.82617	0.00000	4718.01000
4.82999	0.00000	4718.01000
4.83383	0.00000	4718.01000
4.83766	0.00000	4723.66400
4.84150	0.00000	4723.66400
4.84533	0.00000	4723.66400
4.84916	0.00000	4723.66400
4.85300	0.00000	4723.66400
4.85683	0.00000	4723.66400
4.86065	0.00000	4734.51300
4.86449	0.00000	4734.51300
4.86832	0.00000	4734.51300
4.87215	0.00000	4734.51300
4.87596	0.00000	4734.51300
4.87979	0.00000	4734.51300
4.88363	0.00000	4720.68500
4.88746	0.00000	4720.68500
4.89130	0.00000	4720.68500
4.89512	0.00000	4720.68500
4.89897	0.00000	4720.68500
4.90280	0.00000	4720.68500
4.90663	0.00000	4740.04400
4.91046	0.00000	4740.04400
4.91429	0.00000	4740.04400
4.91813	0.00000	4740.04400
4.92196	0.00000	4740.04400
4.92579	0.00000	4720.88300
4.92962	0.00000	4720.88300
4.93345	0.00000	4720.88300
4.93728	0.00000	4720.88300
4.94112	0.00000	4720.88300
4.94495	0.00000	4720.88300
4.94878	0.00000	4715.07300
4.95261	0.00000	4715.07300
4.95644	0.00000	4715.07300
4.96028	0.00000	4715.07300
4.96411	0.00000	4715.07300
4.96794	0.00000	4715.07300
4.97178	0.00000	4720.68500
4.97563	0.00000	4720.68500
4.97946	0.00000	4720.68500
4.98329	0.00000	4720.68500
4.98713	0.00000	4720.68500
4.99097	0.00000	4720.68500
4.99481	0.00000	4728.98200
4.99864	0.00000	4728.98200
5.00299	0.00000	4728.98200
5.00687	0.00000	4728.98200
5.01072	0.00000	4728.98200
5.01459	0.00000	4726.44700
5.01847	0.00000	4726.44700
5.02232	0.00000	4726.44700
5.02617	0.00000	4726.44700
5.03002	0.00000	4726.44700
5.03392	0.00000	4726.44700
5.03778	0.00000	4766.76300
5.04162	0.00000	4766.76300
5.04546	0.00000	4766.76300
5.04929	0.00000	4766.76300
5.05313	0.00000	4766.76300
5.05697	0.00000	4766.76300
5.06081	0.00000	4984.37500
5.06465	0.00000	4984.37500
5.06848	0.00000	4984.37500
5.07232	0.00000	4984.37500
5.07616	0.00000	4984.37500
5.07996	0.00000	4984.37500
5.08381	0.00000	4984.37500
5.08765	0.00000	5169.92700
5.09149	0.00000	5169.92700
5.09533	0.00000	5169.92700
5.09917	0.00000	5169.92700
5.10302	0.00000	5169.92700
5.10687	0.00000	5169.92700
5.11070	0.00000	5287.59600
5.11455	0.00000	5287.59600
5.11839	0.00000	5287.59600
5.12223	0.00000	5287.59600
5.12608	0.00000	5287.59600
5.12992	0.00000	5287.59600
5.13377	0.00000	5287.59600
5.13760	0.00000	5376.56200
5.14144	0.00000	5376.56200
5.14527	0.00000	5376.56200
5.14911	0.00000	5376.56200
5.15295	0.00000	5376.56200
5.15678	0.00000	5376.56200
5.16061	0.00000	5376.56200
5.16444	0.00000	5435.65200
5.16829	0.00000	5435.65200
5.17212	0.00000	5435.65200
5.17596	0.00000	5435.65200
5.17980	0.00000	5435.65200
5.18364	0.00000	5435.65200
5.18749	0.00000	5435.65200
5.19132	0.00000	5472.17200
5.19516	0.00000	5472.17200
5.19903	0.00000	5472.17200
5.20286	0.00000	5472.17200
5.20672	0.00000	5472.17200
5.21056	0.00000	5472.17200
5.21439	0.00000	5472.17200
5.21824	0.00000	5500.45300
5.22207	0.00000	5500.45300
5.22590	0.00000	5500.45300
5.22976	0.00000	5500.45300
5.23360	0.00000	5500.45300
5.23743	0.00000	5500.45300
5.24127	0.00000	5500.45300
5.24511	0.00000	5516.82700
5.24895	0.00000	5516.82700
5.25280	0.00000	5516.82700
5.25664	0.00000	5516.82700
5.26048	0.00000	5516.82700
5.26433	0.00000	5516.82700
5.26816	0.00000	5516.82700
5.27196	0.00000	5535.07200
5.27581	0.00000	5535.07200
5.27965	0.00000	5535.07200
5.28348	0.00000	5535.07200
5.28731	0.00000	5535.07200
5.29116	0.00000	5535.07200
5.29499	0.00000	5535.07200
5.29883	0.00000	5542.01500
5.30267	0.00000	5542.01500
5.30650	0.00000	5542.01500
5.31034	0.00000	5542.01500
5.31418	0.00000	5542.01500
5.31801	0.00000	5542.01500
5.32184	0.00000	5542.01500
5.32568	0.00000	5544.45100
5.32952	0.00000	5544.45100
5.33336	0.00000	5544.45100
5.33720	0.00000	5544.45100
5.34103	0.00000	5544.45100
5.34487	0.00000	5544.45100
5.34871	0.00000	5544.45100
5.35255	0.00000	5551.16300
5.35639	0.00000	5551.16300
5.36022	0.00000	5551.16300
5.36405	0.00000	5551.16300
5.36789	0.00000	5551.16300
5.37172	0.00000	5551.16300
5.37556	0.00000	5551.16300
5.37939	0.00000	5549.10700
5.38325	0.00000	5549.10700
5.38710	0.00000	5549.10700
5.39094	0.00000	5549.10700
5.39479	0.00000	5549.10700
5.39863	0.00000	5549.10700
5.40247	0.00000	5549.10700
5.40631	0.00000	5551.33900
5.41015	0.00000	5551.33900
5.41399	0.00000	5551.33900
5.41783	0.00000	5551.33900
5.42166	0.00000	5551.33900
5.42550	0.00000	5551.33900
5.42934	0.00000	5551.33900
5.43317	0.00000	5551.33900
5.43699	0.00000	5551.33900
5.44082	0.00000	5551.33900
5.44466	0.00000	5551.33900
5.44850	0.00000	5551.33900
5.45234	0.00000	5551.33900
5.45617	0.00000	5551.33900
5.46002	0.00000	5551.33900
5.46385	0.00000	5560.26800
5.46768	0.00000	5560.26800
5.47152	0.00000	5560.26800
5.47537	0.00000	5560.26800
5.47921	0.00000	5560.26800
5.48305	0.00000	5560.26800
5.48688	0.00000	5560.26800
5.49072	0.00000	5553.57100
5.49455	0.00000	5553.57100
5.49839	0.00000	5553.57100
5.50222	0.00000	5553.57100
5.50605	0.00000	5553.57100
5.50989	0.00000	5553.57100
5.51373	0.00000	5553.57100
5.51757	0.00000	5562.50000
5.52140	0.00000	5562.50000
5.52524	0.00000	5562.50000
5.52907	0.00000	5562.50000
5.53291	0.00000	5562.50000
5.53676	0.00000	5562.50000
5.54059	0.00000	5562.50000
5.54442	0.00000	5564.73200
5.54826	0.00000	5564.73200
5.55210	0.00000	5564.73200
5.55594	0.00000	5564.73200
5.55978	0.00000	5564.73200
5.56361	0.00000	5564.73200
5.56746	0.00000	5564.73200
5.57130	0.00000	5549.28700
5.57514	0.00000	5549.28700
5.57897	0.00000	5549.28700
5.58280	0.00000	5549.28700
5.58663	0.00000	5549.28700
5.59046	0.00000	5549.28700
5.59431	0.00000	5549.28700
5.59815	0.00000	5562.50000
5.60200	0.00000	5562.50000
5.60584	0.00000	5562.50000
5.60968	0.00000	5562.50000
5.61352	0.00000	5562.50000
5.61736	0.00000	5562.50000
5.62121	0.00000	5562.50000
5.62504	0.00000	5555.96800
5.62890	0.00000	5555.96800
5.63274	0.00000	5555.96800
5.63658	0.00000	5555.96800
5.64041	0.00000	5555.96800
5.64424	0.00000	5555.96800
5.64808	0.00000	5555.96800
5.65192	0.00000	5564.73200
5.65575	0.00000	5564.73200
5.65960	0.00000	5564.73200
5.66343	0.00000	5564.73200
5.66727	0.00000	5564.73200
5.67113	0.00000	5564.73200
5.67497	0.00000	5564.73200
5.67881	0.00000	5564.73200
5.68264	0.00000	5562.50000
5.68649	0.00000	5562.50000
5.69032	0.00000	5562.50000
5.69416	0.00000	5562.50000
5.69800	0.00000	5562.50000
5.70184	0.00000	5562.50000
5.70568	0.00000	5562.50000
5.70953	0.00000	5562.50000
5.71337	0.00000	5562.50000
5.71721	0.00000	5562.50000
5.72105	0.00000	5562.50000
5.72489	0.00000	5562.50000
5.72872	0.00000	5562.50000
5.73256	0.00000	5562.50000
5.73640	0.00000	5562.50000
5.74023	0.00000	5562.50000
5.74406	0.00000	5562.50000
5.74791	0.00000	5562.50000
5.75175	0.00000	5562.50000
5.75560	0.00000	5562.50000
5.75943	0.00000	5562.50000
5.76329	0.00000	5549.28700
5.76712	0.00000	5549.28700
5.77096	0.00000	5549.28700
5.77479	0.00000	5549.28700
5.77864	0.00000	5549.28700
5.78248	0.00000	5549.28700
5.78632	0.00000	5549.28700
5.79016	0.00000	5566.96400
5.79401	0.00000	5566.96400
5.79785	0.00000	5566.96400
5.80170	0.00000	5566.96400
5.80553	0.00000	5566.96400
5.80937	0.00000	5566.96400
5.81321	0.00000	5566.96400
5.81706	0.00000	5573.66000
5.82089	0.00000	5573.66000
5.82474	0.00000	5573.66000
5.82857	0.00000	5573.66000
5.83240	0.00000	5573.66000
5.83624	0.00000	5573.66000
5.84010	0.00000	5573.66000
5.84393	0.00000	5560.26800
5.84779	0.00000	5560.26800
5.85163	0.00000	5560.26800
5.85547	0.00000	5560.26800
5.85931	0.00000	5560.26800
5.86315	0.00000	5560.26800
5.86700	0.00000	5560.26800
5.87083	0.00000	5564.73200
5.87471	0.00000	5564.73200
5.87854	0.00000	5564.73200
5.88239	0.00000	5564.73200
5.88622	0.00000	5564.73200
5.89006	0.00000	5564.73200
5.89390	0.00000	5564.73200
5.89773	0.00000	5564.73200
5.90156	0.00000	5553.74100
5.90540	0.00000	5553.74100
5.90923	0.00000	5553.74100
5.91307	0.00000	5553.74100
5.91692	0.00000	5553.74100
5.92076	0.00000	5553.74100
5.92460	0.00000	5553.74100
5.92845	0.00000	5564.73200
5.93228	0.00000	5564.73200
5.93612	0.00000	5564.73200
5.93996	0.00000	5564.73200
5.94380	0.00000	5564.73200
5.94764	0.00000	5564.73200
5.95147	0.00000	5564.73200
5.95531	0.00000	5560.26800
5.95915	0.00000	5560.26800
5.96299	0.00000	5560.26800
5.96682	0.00000	5560.26800
5.97067	0.00000	5560.26800
5.97450	0.00000	5560.26800
5.97835	0.00000	5560.26800
5.98219	0.00000	5566.96400
5.98604	0.00000	5566.96400
5.98987	0.00000	5566.96400
5.99370	0.00000	5566.96400
5.99755	0.00000	5566.96400
6.00139	0.00000	5566.96400
6.00524	0.00000	5566.96400
6.00907	0.00000	5560.26800
6.01292	0.00000	5560.26800
6.01679	0.00000	5560.26800
6.02065	0.00000	5560.26800
6.02449	0.00000	5560.26800
6.02833	0.00000	5560.26800
6.03217	0.00000	5560.26800
6.03602	0.00000	5564.73200
6.03986	0.00000	5564.73200
6.04370	0.00000	5564.73200
6.04754	0.00000	5564.73200
6.05138	0.00000	5564.73200
6.05521	0.00000	5564.73200
6.05905	0.00000	5564.73200
6.06288	0.00000	5562.50000
6.06672	0.00000	5562.50000
6.07056	0.00000	5562.50000
6.07440	0.00000	5562.50000
6.07826	0.00000	5562.50000
6.08214	0.00000	5562.50000
6.08604	0.00000	5562.50000
6.08991	0.00000	5569.19700
6.09376	0.00000	5569.19700
6.09760	0.00000	5569.19700
6.10145	0.00000	5569.19700
6.10529	0.00000	5569.19700
6.10914	0.00000	5569.19700
6.11298	0.00000	5569.19700
6.11683	0.00000	5562.50000
6.12066	0.00000	5562.50000
6.12449	0.00000	5562.50000
6.12833	0.00000	5562.50000
6.13217	0.00000	5562.50000
6.13596	0.00000	5562.50000
6.13980	0.00000	5562.50000
6.14363	0.00000	5562.50000
6.14746	0.00000	5566.96400
6.15131	0.00000	5566.96400
6.15514	0.00000	5566.96400
6.15899	0.00000	5566.96400
6.16282	0.00000	5566.96400
6.16666	0.00000	5566.96400
6.17050	0.00000	5566.96400
6.17433	0.00000	5553.74100
6.17817	0.00000	5553.74100
6.18200	0.00000	5553.74100
6.18583	0.00000	5553.74100
6.18967	0.00000	5553.74100
6.19350	0.00000	5553.74100
6.19734	0.00000	5553.74100
6.20118	0.00000	5558.03500
6.20503	0.00000	5558.03500
6.20886	0.00000	5558.03500
6.21270	0.00000	5558.03500
6.21653	0.00000	5558.03500
6.22037	0.00000	5558.03500
6.22422	0.00000	5558.03500
6.22805	0.00000	5566.96400
6.23189	0.00000	5566.96400
6.23572	0.00000	5566.96400
6.23955	0.00000	5566.96400
6.24338	0.00000	5566.96400
6.24721	0.00000	5566.96400
6.25104	0.00000	5566.96400
6.25487	0.00000	5553.74100
6.25870	0.00000	5553.74100
6.26253	0.00000	5553.74100
6.26636	0.00000	5553.74100
6.27020	0.00000	5553.74100
6.27405	0.00000	5553.74100
6.27787	0.00000	5553.74100
6.28171	0.00000	5562.50000
6.28556	0.00000	5562.50000
6.28939	0.00000	5562.50000
6.29322	0.00000	5562.50000
6.29705	0.00000	5562.50000
6.30089	0.00000	5562.50000
6.30472	0.00000	5562.50000
6.30856	0.00000	5562.50000
6.31239	0.00000	5562.50000
6.31623	0.00000	5562.50000
6.32007	0.00000	5562.50000
6.32391	0.00000	5562.50000
6.32776	0.00000	5562.50000
6.33159	0.00000	5562.50000
6.33544	0.00000	5564.73200
6.33927	0.00000	5564.73200
6.34311	0.00000	5564.73200
6.34694	0.00000	5564.73200
6.35077	0.00000	5564.73200
6.35461	0.00000	5564.73200
6.35844	0.00000	5564.73200
6.36229	0.00000	5564.73200
6.36612	0.00000	5558.19500
6.36996	0.00000	5558.19500
6.37380	0.00000	5558.19500
6.37765	0.00000	5558.19500
6.38148	0.00000	5558.19500
6.38532	0.00000	5558.19500
6.38916	0.00000	5558.19500
6.39299	0.00000	5549.28700
6.39683	0.00000	5549.28700
6.40067	0.00000	5549.28700
6.40451	0.00000	5549.28700
6.40834	0.00000	5549.28700
6.41218	0.00000	5549.28700
6.41601	0.00000	5549.28700
6.41985	0.00000	5549.28700
6.42369	0.00000	5549.28700
6.42753	0.00000	5549.28700
6.43136	0.00000	5549.28700
6.43520	0.00000	5549.28700
6.43904	0.00000	5549.28700
6.44288	0.00000	5549.28700
6.44671	0.00000	5551.51400
6.45055	0.00000	5551.51400
6.45438	0.00000	5551.51400
6.45821	0.00000	5551.51400
6.46204	0.00000	5551.51400
6.46587	0.00000	5551.51400
6.46970	0.00000	5551.51400
6.47354	0.00000	5560.26800
6.47738	0.00000	5560.26800
6.48122	0.00000	5560.26800
6.48505	0.00000	5560.26800
6.48888	0.00000	5560.26800
6.49272	0.00000	5560.26800
6.49656	0.00000	5560.26800
6.50041	0.00000	5558.03500
6.50426	0.00000	5558.03500
6.50809	0.00000	5558.03500
6.51193	0.00000	5558.03500
6.51577	0.00000	5558.03500
6.51961	0.00000	5558.03500
6.52344	0.00000	5558.03500
6.52727	0.00000	5562.50000
6.53112	0.00000	5562.50000
6.53495	0.00000	5562.50000
6.53879	0.00000	5562.50000
6.54263	0.00000	5562.50000
6.54646	0.00000	5562.50000
6.55030	0.00000	5562.50000
6.55414	0.00000	5555.80300
6.55797	0.00000	5555.80300
6.56180	0.00000	5555.80300
6.56566	0.00000	5555.80300
6.56949	0.00000	5555.80300
6.57333	0.00000	5555.80300
6.57716	0.00000	5555.80300
6.58100	0.00000	5555.80300
6.58483	0.00000	5560.26800
6.58868	0.00000	5560.26800
6.59252	0.00000	5560.26800
6.59635	0.00000	5560.26800
6.60019	0.00000	5560.26800
6.60404	0.00000	5560.26800
6.60788	0.00000	5560.26800
6.61171	0.00000	5560.26800
6.61554	0.00000	5560.26800
6.61940	0.00000	5560.26800
6.62324	0.00000	5560.26800
6.62707	0.00000	5560.26800
6.63092	0.00000	5560.26800
6.63476	0.00000	5560.26800
6.63860	0.00000	5558.03500
6.64243	0.00000	5558.03500
6.64627	0.00000	5558.03500
6.65011	0.00000	5558.03500
6.65395	0.00000	5558.03500
6.65778	0.00000	5558.03500
6.66162	0.00000	5558.03500
6.66545	0.00000	5560.26800
6.66928	0.00000	5560.26800
6.67311	0.00000	5560.26800
6.67694	0.00000	5560.26800
6.68079	0.00000	5560.26800
6.68462	0.00000	5560.26800
6.68846	0.00000	5560.26800
6.69229	0.00000	5547.06000
6.69613	0.00000	5547.06000
6.69996	0.00000	5547.06000
6.70380	0.00000	5547.06000
6.70764	0.00000	5547.06000
6.71147	0.00000	5547.06000
6.71531	0.00000	5547.06000
6.71914	0.00000	5560.26800
6.72297	0.00000	5560.26800
6.72681	0.00000	5560.26800
6.73065	0.00000	5560.26800
6.73449	0.00000	5560.26800
6.73832	0.00000	5560.26800
6.74215	0.00000	5560.26800
6.74600	0.00000	5562.50000
6.74984	0.00000	5562.50000
6.75367	0.00000	5562.50000
6.75751	0.00000	5562.50000
6.76135	0.00000	5562.50000
6.76518	0.00000	5562.50000
6.76903	0.00000	5562.50000
6.77286	0.00000	5564.73200
6.77671	0.00000	5564.73200
6.78055	0.00000	5564.73200
6.78439	0.00000	5564.73200
6.78822	0.00000	5564.73200
6.79206	0.00000	5564.73200
6.79589	0.00000	5564.73200
6.79974	0.00000	5564.73200
6.80356	0.00000	5564.73200
6.80740	0.00000	5564.73200
6.81124	0.00000	5564.73200
6.81508	0.00000	5564.73200
6.81891	0.00000	5564.73200
6.82275	0.00000	5564.73200
6.82658	0.00000	5564.73200
6.83041	0.00000	5562.50000
6.83426	0.00000	5562.50000
6.83809	0.00000	5562.50000
6.84193	0.00000	5562.50000
6.84576	0.00000	5562.50000
6.84960	0.00000	5562.50000
6.85343	0.00000	5562.50000
6.85727	0.00000	5558.03500
6.86111	0.00000	5558.03500
6.86495	0.00000	5558.03500
6.86879	0.00000	5558.03500
6.87263	0.00000	5558.03500
6.87646	0.00000	5558.03500
6.88029	0.00000	5558.03500
6.88412	0.00000	5562.50000
6.88796	0.00000	5562.50000
6.89181	0.00000	5562.50000
6.89564	0.00000	5562.50000
6.89948	0.00000	5562.50000
6.90332	0.00000	5562.50000
6.90718	0.00000	5562.50000
6.91103	0.00000	5555.80300
6.91487	0.00000	5555.80300
6.91870	0.00000	5555.80300
6.92254	0.00000	5555.80300
6.92637	0.00000	5555.80300
6.93021	0.00000	5555.80300
6.93404	0.00000	5555.80300
6.93789	0.00000	5558.03500
6.94172	0.00000	5558.03500
6.94555	0.00000	5558.03500
6.94939	0.00000	5558.03500
6.95324	0.00000	5558.03500
6.95709	0.00000	5558.03500
6.96092	0.00000	5558.03500
6.96475	0.00000	5560.26800
6.96860	0.00000	5560.26800
6.97245	0.00000	5560.26800
6.97629	0.00000	5560.26800
6.98012	0.00000	5560.26800
6.98396	0.00000	5560.26800
6.98781	0.00000	5560.26800
6.99164	0.00000	5558.03500
6.99548	0.00000	5558.03500
6.99932	0.00000	5558.03500
7.00316	0.00000	5558.03500
7.00699	0.00000	5558.03500
7.01084	0.00000	5558.03500
7.01472	0.00000	5558.03500
7.01856	0.00000	5564.58800
7.02239	0.00000	5564.58800
7.02623	0.00000	5564.58800
7.03007	0.00000	5564.58800
7.03391	0.00000	5564.58800
7.03775	0.00000	5564.58800
7.04159	0.00000	5564.58800
7.04543	0.00000	5564.58800
7.04926	0.00000	5560.26800
7.05310	0.00000	5560.26800
7.05693	0.00000	5560.26800
7.06078	0.00000	5560.26800
7.06462	0.00000	5560.26800
7.06845	0.00000	5560.26800
7.07228	0.00000	5560.26800
7.07613	0.00000	5555.80300
7.07996	0.00000	5555.80300
7.08380	0.00000	5555.80300
7.08763	0.00000	5555.80300
7.09146	0.00000	5555.80300
7.09530	0.00000	5555.80300
7.09914	0.00000	5555.80300
7.10297	0.00000	5558.03500
7.10681	0.00000	5558.03500
7.11066	0.00000	5558.03500
7.11450	0.00000	5558.03500
7.11834	0.00000	5558.03500
7.12217	0.00000	5558.03500
7.12602	0.00000	5558.03500
7.12985	0.00000	5560.26800
7.13368	0.00000	5560.26800
7.13752	0.00000	5560.26800
7.14136	0.00000	5560.26800
7.14519	0.00000	5560.26800
7.14903	0.00000	5560.26800
7.15286	0.00000	5560.26800
7.15670	0.00000	5558.03500
7.16053	0.00000	5558.03500
7.16437	0.00000	5558.03500
7.16821	0.00000	5558.03500
7.17205	0.00000	5558.03500
7.17588	0.00000	5558.03500
7.17973	0.00000	5558.03500
7.18356	0.00000	5560.26800
7.18740	0.00000	5560.26800
7.19124	0.00000	5560.26800
7.19508	0.00000	5560.26800
7.19893	0.00000	5560.26800
7.20276	0.00000	5560.26800
7.20661	0.00000	5560.26800
7.21044	0.00000	5549.28700
7.21429	0.00000	5549.28700
7.21813	0.00000	5549.28700
7.22197	0.00000	5549.28700
7.22580	0.00000	5549.28700
7.22965	0.00000	5549.28700
7.23349	0.00000	5549.28700
7.23733	0.00000	5547.06000
7.24118	0.00000	5547.06000
7.24502	0.00000	5547.06000
7.24886	0.00000	5547.06000
7.25269	0.00000	5547.06000
7.25653	0.00000	5547.06000
7.26037	0.00000	5547.06000
7.26421	0.00000	5547.06000
7.26804	0.00000	5560.26800
7.27187	0.00000	5560.26800
7.27570	0.00000	5560.26800
7.27954	0.00000	5560.26800
7.28337	0.00000	5560.26800
7.28721	0.00000	5560.26800
7.29105	0.00000	5560.26800
7.29489	0.00000	5564.73200
7.29872	0.00000	5564.73200
7.30256	0.00000	5564.73200
7.30640	0.00000	5564.73200
7.31025	0.00000	5564.73200
7.31409	0.00000	5564.73200
7.31792	0.00000	5564.73200
7.32177	0.00000	5555.80300
7.32561	0.00000	5555.80300
7.32945	0.00000	5555.80300
7.33328	0.00000	5555.80300
7.33712	0.00000	5555.80300
7.34095	0.00000	5555.80300
7.34479	0.00000	5555.80300
7.34863	0.00000	5562.50000
7.35247	0.00000	5562.50000
7.35630	0.00000	5562.50000
7.36014	0.00000	5562.50000
7.36396	0.00000	5562.50000
7.36780	0.00000	5562.50000
7.37163	0.00000	5562.50000
7.37547	0.00000	5558.03500
7.37930	0.00000	5558.03500
7.38314	0.00000	5558.03500
7.38698	0.00000	5558.03500
7.39081	0.00000	5558.03500
7.39465	0.00000	5558.03500
7.39848	0.00000	5558.03500
7.40233	0.00000	5558.03500
7.40617	0.00000	5558.03500
7.41001	0.00000	5558.03500
7.41384	0.00000	5558.03500
7.41768	0.00000	5558.03500
7.42152	0.00000	5558.03500
7.42536	0.00000	5558.03500
7.42919	0.00000	5553.57100
7.43303	0.00000	5553.57100
7.43687	0.00000	5553.57100
7.44072	0.00000	5553.57100
7.44456	0.00000	5553.57100
7.44840	0.00000	5553.57100
7.45224	0.00000	5553.57100
7.45608	0.00000	5558.03500
7.45993	0.00000	5558.03500
7.46377	0.00000	5558.03500
7.46761	0.00000	5558.03500
7.47145	0.00000	5558.03500
7.47528	0.00000	5558.03500
7.47913	0.00000	5558.03500
7.48296	0.00000	5566.82500
7.48678	0.00000	5566.82500
7.49062	0.00000	5566.82500
7.49445	0.00000	5566.82500
7.49828	0.00000	5566.82500
7.50212	0.00000	5566.82500
7.50595	0.00000	5566.82500
7.50978	0.00000	5566.82500
7.51362	0.00000	5553.57100
7.51745	0.00000	5553.57100
7.52129	0.00000	5553.57100
7.52513	0.00000	5553.57100
7.52897	0.00000	5553.57100
7.53281	0.00000	5553.57100
7.53665	0.00000	5553.57100
7.54048	0.00000	5564.58800
7.54432	0.00000	5564.58800
7.54816	0.00000	5564.58800
7.55196	0.00000	5564.58800
7.55579	0.00000	5564.58800
7.55963	0.00000	5564.58800
7.56346	0.00000	5564.58800
7.56730	0.00000	5562.35000
7.57114	0.00000	5562.35000
7.57497	0.00000	5562.35000
7.57881	0.00000	5562.35000
7.58266	0.00000	5562.35000
7.58650	0.00000	5562.35000
7.59033	0.00000	5562.35000
7.59417	0.00000	5551.33900
7.59802	0.00000	5551.33900
7.60186	0.00000	5551.33900
7.60569	0.00000	5551.33900
7.60952	0.00000	5551.33900
7.61336	0.00000	5551.33900
7.61720	0.00000	5551.33900
7.62104	0.00000	5566.82500
7.62488	0.00000	5566.82500
7.62872	0.00000	5566.82500
7.63255	0.00000	5566.82500
7.63638	0.00000	5566.82500
7.64023	0.00000	5566.82500
7.64406	0.00000	5566.82500
7.64789	0.00000	5553.57100
7.65174	0.00000	5553.57100
7.65558	0.00000	5553.57100
7.65942	0.00000	5553.57100
7.66325	0.00000	5553.57100
7.66709	0.00000	5553.57100
7.67093	0.00000	5553.57100
7.67476	0.00000	5564.58800
7.67860	0.00000	5564.58800
7.68244	0.00000	5564.58800
7.68629	0.00000	5564.58800
7.69013	0.00000	5564.58800
7.69396	0.00000	5564.58800
7.69779	0.00000	5564.58800
7.70165	0.00000	5553.57100
7.70548	0.00000	5553.57100
7.70931	0.00000	5553.57100
7.71315	0.00000	5553.57100
7.71698	0.00000	5553.57100
7.72082	0.00000	5553.57100
7.72466	0.00000	5553.57100
7.72850	0.00000	5553.57100
7.73234	0.00000	5557.87600
7.73619	0.00000	5557.87600
7.74004	0.00000	5557.87600
7.74388	0.00000	5557.87600
7.74772	0.00000	5557.87600
7.75156	0.00000	5557.87600
7.75540	0.00000	5557.87600
7.75923	0.00000	5553.57100
7.76307	0.00000	5553.57100
7.76691	0.00000	5553.57100
7.77074	0.00000	5553.57100
7.77457	0.00000	5553.57100
7.77841	0.00000	5553.57100
7.78225	0.00000	5553.57100
7.78609	0.00000	5549.10700
7.78993	0.00000	5549.10700
7.79376	0.00000	5549.10700
7.79759	0.00000	5549.10700
7.80143	0.00000	5549.10700
7.80529	0.00000	5549.10700
7.80913	0.00000	5549.10700
7.81296	0.00000	5569.06300
7.81681	0.00000	5569.06300
7.82065	0.00000	5569.06300
7.82448	0.00000	5569.06300
7.82833	0.00000	5569.06300
7.83217	0.00000	5569.06300
7.83602	0.00000	5569.06300
7.83986	0.00000	5549.10700
7.84370	0.00000	5549.10700
7.84754	0.00000	5549.10700
7.85138	0.00000	5549.10700
7.85522	0.00000	5549.10700
7.85906	0.00000	5549.10700
7.86290	0.00000	5549.10700
7.86674	0.00000	5553.57100
7.87057	0.00000	5553.57100
7.87442	0.00000	5553.57100
7.87826	0.00000	5553.57100
7.88210	0.00000	5553.57100
7.88594	0.00000	5553.57100
7.88978	0.00000	5553.57100
7.89362	0.00000	5549.10700
7.89747	0.00000	5549.10700
7.90130	0.00000	5549.10700
7.90515	0.00000	5549.10700
7.90898	0.00000	5549.10700
7.91282	0.00000	5549.10700
7.91666	0.00000	5549.10700
7.92051	0.00000	5551.33900
7.92436	0.00000	5551.33900
7.92820	0.00000	5551.33900
7.93203	0.00000	5551.33900
7.93587	0.00000	5551.33900
7.93971	0.00000	5551.33900
7.94354	0.00000	5551.33900
7.94738	0.00000	5553.57100
7.95122	0.00000	5553.57100
7.95506	0.00000	5553.57100
7.95890	0.00000	5553.57100
7.96273	0.00000	5553.57100
7.96656	0.00000	5553.57100
7.97040	0.00000	5553.57100
7.97425	0.00000	5553.57100
7.97808	0.00000	5562.35000
7.98191	0.00000	5562.35000
7.98575	0.00000	5562.35000
7.98960	0.00000	5562.35000
7.99344	0.00000	5562.35000
7.99727	0.00000	5562.35000
8.00111	0.00000	5562.35000
8.00494	0.00000	5562.35000
8.00879	0.00000	5562.35000
8.01264	0.00000	5562.35000
8.01651	0.00000	5562.35000
8.02037	0.00000	5562.35000
8.02422	0.00000	5562.35000
8.02807	0.00000	5562.35000
8.03192	0.00000	5549.10700
8.03577	0.00000	5549.10700
8.03960	0.00000	5549.10700
8.04345	0.00000	5549.10700
8.04728	0.00000	5549.10700
8.05112	0.00000	5549.10700
8.05495	0.00000	5549.10700
8.05878	0.00000	5544.64200
8.06262	0.00000	5544.64200
8.06646	0.00000	5544.64200
8.07029	0.00000	5544.64200
8.07414	0.00000	5544.64200
8.07798	0.00000	5544.64200
8.08182	0.00000	5544.64200
8.08567	0.00000	5549.10700
8.08951	0.00000	5549.10700
8.09335	0.00000	5549.10700
8.09719	0.00000	5549.10700
8.10103	0.00000	5549.10700
8.10486	0.00000	5549.10700
8.10870	0.00000	5549.10700
8.11254	0.00000	5549.10700
8.11639	0.00000	5549.10700
8.12022	0.00000	5549.10700
8.12407	0.00000	5549.10700
8.12790	0.00000	5549.10700
8.13176	0.00000	5549.10700
8.13559	0.00000	5549.10700
8.13943	0.00000	5560.11300
8.14327	0.00000	5560.11300
8.14711	0.00000	5560.11300
8.15096	0.00000	5560.11300
8.15480	0.00000	5560.11300
8.15863	0.00000	5560.11300
8.16248	0.00000	5560.11300
8.16631	0.00000	5551.33900
8.17017	0.00000	5551.33900
8.17401	0.00000	5551.33900
8.17785	0.00000	5551.33900
8.18168	0.00000	5551.33900
8.18552	0.00000	5551.33900
8.18936	0.00000	5551.33900
8.19319	0.00000	5544.64200
8.19704	0.00000	5544.64200
8.20088	0.00000	5544.64200
8.20471	0.00000	5544.64200
8.20856	0.00000	5544.64200
8.21239	0.00000	5544.64200
8.21623	0.00000	5544.64200
8.22007	0.00000	5562.35000
8.22390	0.00000	5562.35000
8.22775	0.00000	5562.35000
8.23158	0.00000	5562.35000
8.23542	0.00000	5562.35000
8.23926	0.00000	5562.35000
8.24310	0.00000	5562.35000
8.24693	0.00000	5562.35000
8.25076	0.00000	5557.87600
8.25459	0.00000	5557.87600
8.25844	0.00000	5557.87600
8.26228	0.00000	5557.87600
8.26612	0.00000	5557.87600
8.26995	0.00000	5557.87600
8.27379	0.00000	5557.87600
8.27762	0.00000	5549.10700
8.28147	0.00000	5549.10700
8.28531	0.00000	5549.10700
8.28915	0.00000	5549.10700
8.29299	0.00000	5549.10700
8.29685	0.00000	5549.10700
8.30069	0.00000	5549.10700
8.30453	0.00000	5549.10700
8.30836	0.00000	5549.10700
8.31221	0.00000	5549.10700
8.31605	0.00000	5549.10700
8.31989	0.00000	5549.10700
8.32373	0.00000	5549.10700
8.32757	0.00000	5549.10700
8.33141	0.00000	5564.58800
8.33524	0.00000	5564.58800
8.33907	0.00000	5564.58800
8.34292	0.00000	5564.58800
8.34676	0.00000	5564.58800
8.35059	0.00000	5564.58800
8.35443	0.00000	5564.58800
8.35828	0.00000	5549.10700
8.36212	0.00000	5549.10700
8.36595	0.00000	5549.10700
8.36979	0.00000	5549.10700
8.37364	0.00000	5549.10700
8.37748	0.00000	5549.10700
8.38132	0.00000	5549.10700
8.38515	0.00000	5566.82500
8.38900	0.00000	5566.82500
8.39284	0.00000	5566.82500
8.39667	0.00000	5566.82500
8.40051	0.00000	5566.82500
8.40437	0.00000	5566.82500
8.40821	0.00000	5566.82500
8.41204	0.00000	5551.33900
8.41587	0.00000	5551.33900
8.41973	0.00000	5551.33900
8.42356	0.00000	5551.33900
8.42740	0.00000	5551.33900
8.43124	0.00000	5551.33900
8.43509	0.00000	5551.33900
8.43893	0.00000	5549.10700
8.44278	0.00000	5549.10700
8.44661	0.00000	5549.10700
8.45046	0.00000	5549.10700
8.45430	0.00000	5549.10700
8.45814	0.00000	5549.10700
8.46197	0.00000	5549.10700
8.46582	0.00000	5549.10700
8.46966	0.00000	5549.10700
8.47349	0.00000	5549.10700
8.47732	0.00000	5549.10700
8.48118	0.00000	5549.10700
8.48501	0.00000	5549.10700
8.48886	0.00000	5549.10700
8.49270	0.00000	5549.10700
8.49654	0.00000	5551.33900
8.50038	0.00000	5551.33900
8.50422	0.00000	5551.33900
8.50806	0.00000	5551.33900
8.51190	0.00000	5551.33900
8.51574	0.00000	5551.33900
8.51958	0.00000	5551.33900
8.52342	0.00000	5553.57100
8.52726	0.00000	5553.57100
8.53110	0.00000	5553.57100
8.53493	0.00000	5553.57100
8.53876	0.00000	5553.57100
8.54261	0.00000	5553.57100
8.54645	0.00000	5553.57100
8.55028	0.00000	5560.11300
8.55412	0.00000	5560.11300
8.55797	0.00000	5560.11300
8.56180	0.00000	5560.11300
8.56564	0.00000	5560.11300
8.56949	0.00000	5560.11300
8.57335	0.00000	5560.11300
8.57718	0.00000	5558.03500
8.58103	0.00000	5558.03500
8.58487	0.00000	5558.03500
8.58870	0.00000	5558.03500
8.59253	0.00000	5558.03500
8.59639	0.00000	5558.03500
8.60022	0.00000	5558.03500
8.60406	0.00000	5551.33900
8.60790	0.00000	5551.33900
8.61175	0.00000	5551.33900
8.61558	0.00000	5551.33900
8.61943	0.00000	5551.33900
8.62327	0.00000	5551.33900
8.62712	0.00000	5551.33900
8.63095	0.00000	5555.80300
8.63480	0.00000	5555.80300
8.63864	0.00000	5555.80300
8.64247	0.00000	5555.80300
8.64631	0.00000	5555.80300
8.65015	0.00000	5555.80300
8.65398	0.00000	5555.80300
8.65783	0.00000	5553.57100
8.66167	0.00000	5553.57100
8.66551	0.00000	5553.57100
8.66934	0.00000	5553.57100
8.67320	0.00000	5553.57100
8.67703	0.00000	5553.57100
8.68087	0.00000	5553.57100
8.68471	0.00000	5558.03500
8.68856	0.00000	5558.03500
8.69240	0.00000	5558.03500
8.69624	0.00000	5558.03500
8.70008	0.00000	5558.03500
8.70392	0.00000	5558.03500
8.70777	0.00000	5558.03500
8.71161	0.00000	5553.57100
8.71543	0.00000	5553.57100
8.71928	0.00000	5553.57100
8.72312	0.00000	5553.57100
8.72696	0.00000	5553.57100
8.73080	0.00000	5553.57100
8.73464	0.00000	5553.57100
8.73847	0.00000	5553.57100
8.74231	0.00000	5555.80300
8.74614	0.00000	5555.80300
8.74998	0.00000	5555.80300
8.75381	0.00000	5555.80300
8.75766	0.00000	5555.80300
8.76150	0.00000	5555.80300
8.76533	0.00000	5555.80300
8.76917	0.00000	5558.03500
8.77302	0.00000	5558.03500
8.77686	0.00000	5558.03500
8.78070	0.00000	5558.03500
8.78453	0.00000	5558.03500
8.78838	0.00000	5558.03500
8.79221	0.00000	5558.03500
8.79604	0.00000	5558.03500
8.79988	0.00000	5558.03500
8.80371	0.00000	5558.03500
8.80755	0.00000	5558.03500
8.81138	0.00000	5558.03500
8.81521	0.00000	5558.03500
8.81905	0.00000	5558.03500
8.82289	0.00000	5560.26800
8.82672	0.00000	5560.26800
8.83056	0.00000	5560.26800
8.83439	0.00000	5560.26800
8.83823	0.00000	5560.26800
8.84206	0.00000	5560.26800
8.84590	0.00000	5560.26800
8.84973	0.00000	5558.03500
8.85357	0.00000	5558.03500
8.85740	0.00000	5558.03500
8.86124	0.00000	5558.03500
8.86510	0.00000	5558.03500
8.86893	0.00000	5558.03500
8.87277	0.00000	5558.03500
8.87660	0.00000	5558.03500
8.88043	0.00000	5558.03500
8.88426	0.00000	5558.03500
8.88810	0.00000	5558.03500
8.89194	0.00000	5558.03500
8.89578	0.00000	5558.03500
8.89962	0.00000	5558.03500
8.90346	0.00000	5558.03500
8.90730	0.00000	5558.03500
8.91113	0.00000	5558.03500
8.91498	0.00000	5558.03500
8.91881	0.00000	5558.03500
8.92265	0.00000	5558.03500
8.92649	0.00000	5558.03500
8.93034	0.00000	5553.57100
8.93420	0.00000	5553.57100
8.93804	0.00000	5553.57100
8.94189	0.00000	5553.57100
8.94572	0.00000	5553.57100
8.94955	0.00000	5553.57100
8.95338	0.00000	5553.57100
8.95723	0.00000	5555.80300
8.96105	0.00000	5555.80300
8.96489	0.00000	5555.80300
8.96872	0.00000	5555.80300
8.97256	0.00000	5555.80300
8.97640	0.00000	5555.80300
8.98025	0.00000	5555.80300
8.98409	0.00000	5555.80300
8.98793	0.00000	5560.26800
8.99178	0.00000	5560.26800
8.99562	0.00000	5560.26800
8.99945	0.00000	5560.26800
9.00328	0.00000	5560.26800
9.00712	0.00000	5560.26800
9.01096	0.00000	5560.26800
9.01483	0.00000	5555.80300
9.01867	0.00000	5555.80300
9.02251	0.00000	5555.80300
9.02634	0.00000	5555.80300
9.03019	0.00000	5555.80300
9.03402	0.00000	5555.80300
9.03786	0.00000	5555.80300
9.04171	0.00000	5558.03500
9.04555	0.00000	5558.03500
9.04939	0.00000	5558.03500
9.05323	0.00000	5558.03500
9.05707	0.00000	5558.03500
9.06092	0.00000	5558.03500
9.06476	0.00000	5558.03500
9.06859	0.00000	5553.57100
9.07243	0.00000	5553.57100
9.07626	0.00000	5553.57100
9.08009	0.00000	5553.57100
9.08396	0.00000	5553.57100
9.08779	0.00000	5553.57100
9.09163	0.00000	5553.57100
9.09547	0.00000	5553.57100
9.09931	0.00000	5553.57100
9.10315	0.00000	5553.57100
9.10702	0.00000	5553.57100
9.11087	0.00000	5553.57100
9.11471	0.00000	5553.57100
9.11855	0.00000	5553.57100
9.12238	0.00000	5553.57100
9.12623	0.00000	5553.57100
9.13007	0.00000	5553.57100
9.13391	0.00000	5553.57100
9.13774	0.00000	5553.57100
9.14157	0.00000	5553.57100
9.14540	0.00000	5553.57100
9.14924	0.00000	5569.06300
9.15310	0.00000	5569.06300
9.15694	0.00000	5569.06300
9.16077	0.00000	5569.06300
9.16461	0.00000	5569.06300
9.16844	0.00000	5569.06300
9.17228	0.00000	5569.06300
9.17612	0.00000	5555.80300
9.17996	0.00000	5555.80300
9.18379	0.00000	5555.80300
9.18763	0.00000	5555.80300
9.19148	0.00000	5555.80300
9.19531	0.00000	5555.80300
9.19915	0.00000	5555.80300
9.20298	0.00000	5551.33900
9.20680	0.00000	5551.33900
9.21065	0.00000	5551.33900
9.21450	0.00000	5551.33900
9.21834	0.00000	5551.33900
9.22218	0.00000	5551.33900
9.22602	0.00000	5551.33900
9.22986	0.00000	5551.33900
9.23370	0.00000	5551.33900
9.23754	0.00000	5551.33900
9.24138	0.00000	5551.33900
9.24522	0.00000	5551.33900
9.24906	0.00000	5551.33900
9.25290	0.00000	5551.33900
9.25673	0.00000	5551.33900
9.26057	0.00000	5566.82500
9.26441	0.00000	5566.82500
9.26824	0.00000	5566.82500
9.27208	0.00000	5566.82500
9.27592	0.00000	5566.82500
9.27977	0.00000	5566.82500
9.28360	0.00000	5566.82500
9.28743	0.00000	5551.33900
9.29128	0.00000	5551.33900
9.29512	0.00000	5551.33900
9.29895	0.00000	5551.33900
9.30280	0.00000	5551.33900
9.30664	0.00000	5551.33900
9.31048	0.00000	5551.33900
9.31432	0.00000	5549.10700
9.31816	0.00000	5549.10700
9.32200	0.00000	5549.10700
9.32584	0.00000	5549.10700
9.32967	0.00000	5549.10700
9.33351	0.00000	5549.10700
9.33735	0.00000	5549.10700
9.34119	0.00000	5562.35000
9.34502	0.00000	5562.35000
9.34886	0.00000	5562.35000
9.35270	0.00000	5562.35000
9.35655	0.00000	5562.35000
9.36039	0.00000	5562.35000
9.36422	0.00000	5562.35000
9.36806	0.00000	5546.87500
9.37190	0.00000	5546.87500
9.37575	0.00000	5546.87500
9.37959	0.00000	5546.87500
9.38342	0.00000	5546.87500
9.38726	0.00000	5546.87500
9.39110	0.00000	5546.87500
9.39494	0.00000	5551.33900
9.39879	0.00000	5551.33900
9.40262	0.00000	5551.33900
9.40646	0.00000	5551.33900
9.41030	0.00000	5551.33900
9.41414	0.00000	5551.33900
9.41798	0.00000	5551.33900
9.42182	0.00000	5560.11300
9.42567	0.00000	5560.11300
9.42951	0.00000	5560.11300
9.43335	0.00000	5560.11300
9.43719	0.00000	5560.11300
9.44102	0.00000	5560.11300
9.44486	0.00000	5560.11300
9.44871	0.00000	5557.87600
9.45255	0.00000	5557.87600
9.45639	0.00000	5557.87600
9.46022	0.00000	5557.87600
9.46407	0.00000	5557.87600
9.46791	0.00000	5557.87600
9.47175	0.00000	5557.87600
9.47558	0.00000	5557.87600
9.47941	0.00000	5549.10700
9.48325	0.00000	5549.10700
9.48708	0.00000	5549.10700
9.49092	0.00000	5549.10700
9.49476	0.00000	5549.10700
9.49860	0.00000	5549.10700
9.50244	0.00000	5549.10700
9.50628	0.00000	5549.10700
9.51011	0.00000	5549.10700
9.51396	0.00000	5549.10700
9.51780	0.00000	5549.10700
9.52164	0.00000	5549.10700
9.52548	0.00000	5549.10700
9.52932	0.00000	5549.10700
9.53315	0.00000	5560.11300
9.53700	0.00000	5560.11300
9.54084	0.00000	5560.11300
9.54469	0.00000	5560.11300
9.54852	0.00000	5560.11300
9.55237	0.00000	5560.11300
9.55620	0.00000	5560.11300
9.56004	0.00000	5551.33900
9.56387	0.00000	5551.33900
9.56772	0.00000	5551.33900
9.57155	0.00000	5551.33900
9.57540	0.00000	5551.33900
9.57924	0.00000	5551.33900
9.58309	0.00000	5551.33900
9.58693	0.00000	5549.10700
9.59077	0.00000	5549.10700
9.59460	0.00000	5549.10700
9.59844	0.00000	5549.10700
9.60228	0.00000	5549.10700
9.60612	0.00000	5549.10700
9.60996	0.00000	5549.10700
9.61380	0.00000	5560.11300
9.61765	0.00000	5560.11300
9.62148	0.00000	5560.11300
9.62532	0.00000	5560.11300
9.62916	0.00000	5560.11300
9.63300	0.00000	5560.11300
9.63685	0.00000	5560.11300
9.64069	0.00000	5553.57100
9.64453	0.00000	5553.57100
9.64837	0.00000	5553.57100
9.65221	0.00000	5553.57100
9.65604	0.00000	5553.57100
9.65989	0.00000	5553.57100
9.66373	0.00000	5553.57100
9.66757	0.00000	5546.87500
9.67143	0.00000	5546.87500
9.67527	0.00000	5546.87500
9.67911	0.00000	5546.87500
9.68295	0.00000	5546.87500
9.68678	0.00000	5546.87500
9.69061	0.00000	5546.87500
9.69445	0.00000	5562.35000
9.69828	0.00000	5562.35000
9.70211	0.00000	5562.35000
9.70596	0.00000	5562.35000
9.70980	0.00000	5562.35000
9.71365	0.00000	5562.35000
9.71749	0.00000	5562.35000
9.72133	0.00000	5562.35000
9.72516	0.00000	5557.87600
9.72902	0.00000	5557.87600
9.73286	0.00000	5557.87600
9.73670	0.00000	5557.87600
9.74054	0.00000	5557.87600
9.74438	0.00000	5557.87600
9.74822	0.00000	5557.87600
9.75205	0.00000	5551.33900
9.75589	0.00000	5551.33900
9.75973	0.00000	5551.33900
9.76357	0.00000	5551.33900
9.76741	0.00000	5551.33900
9.77125	0.00000	5551.33900
9.77509	0.00000	5551.33900
9.77892	0.00000	5560.11300
9.78277	0.00000	5560.11300
9.78661	0.00000	5560.11300
9.79046	0.00000	5560.11300
9.79429	0.00000	5560.11300
9.79813	0.00000	5560.11300
9.80197	0.00000	5560.11300
9.80581	0.00000	5564.58800
9.80966	0.00000	5564.58800
9.81350	0.00000	5564.58800
9.81734	0.00000	5564.58800
9.82118	0.00000	5564.58800
9.82502	0.00000	5564.58800
9.82885	0.00000	5564.58800
9.83268	0.00000	5549.10700
9.83652	0.00000	5549.10700
9.84035	0.00000	5549.10700
9.84420	0.00000	5549.10700
9.84804	0.00000	5549.10700
9.85187	0.00000	5549.10700
9.85570	0.00000	5549.10700
9.85954	0.00000	5569.06300
9.86338	0.00000	5569.06300
9.86722	0.00000	5569.06300
9.87106	0.00000	5569.06300
9.87491	0.00000	5569.06300
9.87874	0.00000	5569.06300
9.88258	0.00000	5569.06300
9.88641	0.00000	5551.33900
9.89025	0.00000	5551.33900
9.89409	0.00000	5551.33900
9.89792	0.00000	5551.33900
9.90177	0.00000	5551.33900
9.90560	0.00000	5551.33900
9.90944	0.00000	5551.33900
9.91328	0.00000	5571.30100
9.91712	0.00000	5571.30100
9.92096	0.00000	5571.30100
9.92481	0.00000	5571.30100
9.92864	0.00000	5571.30100
9.93248	0.00000	5571.30100
9.93632	0.00000	5571.30100
9.94015	0.00000	5555.80300
9.94396	0.00000	5555.80300
9.94780	0.00000	5555.80300
9.95164	0.00000	5555.80300
9.95547	0.00000	5555.80300
9.95931	0.00000	5555.80300
9.96316	0.00000	5555.80300
9.96699	0.00000	5555.80300
9.97083	0.00000	5547.06000
9.97466	0.00000	5547.06000
9.97850	0.00000	5547.06000
9.98232	0.00000	5547.06000
9.98616	0.00000	5547.06000
9.98999	0.00000	5547.06000
9.99383	0.00000	5547.06000
9.99766	0.00000	5555.80300
