Time (s)   Thrust (N)   RPM
0.00032	0.00000	5901.21000
0.00422	0.00000	5901.21000
0.00809	0.00000	5901.21000
0.01194	0.00000	5901.21000
0.01578	0.00000	5901.21000
0.01963	0.00000	5901.21000
0.02356	0.00000	5886.43800
0.02743	0.00000	5886.43800
0.03127	0.00000	5886.43800
0.03512	0.00000	5886.43800
0.03896	0.00000	5886.43800
0.04285	0.00000	5886.43800
0.04675	0.00000	5886.43800
0.05061	0.00000	5666.04200
0.05445	0.00000	5666.04200
0.05828	0.00000	5666.04200
0.06211	0.00000	5666.04200
0.06594	0.00000	5666.04200
0.06976	0.00000	5666.04200
0.07359	0.00000	5666.04200
0.07742	0.00000	5467.22500
0.08125	0.00000	5467.22500
0.08508	0.00000	5467.22500
0.08892	0.00000	5467.22500
0.09274	0.00000	5467.22500
0.09658	0.00000	5467.22500
0.10042	0.00000	5467.22500
0.10425	0.00000	5310.91300
0.10807	0.00000	5310.91300
0.11190	0.00000	5310.91300
0.11573	0.00000	5310.91300
0.11955	0.00000	5310.91300
0.12340	0.00000	5310.91300
0.12723	0.00000	5203.12500
0.13107	0.00000	5203.12500
0.13491	0.00000	5203.12500
0.13874	0.00000	5203.12500
0.14256	0.00000	5203.12500
0.14638	0.00000	5203.12500
0.15022	0.00000	5203.12500
0.15405	0.00000	5109.75200
0.15788	0.00000	5109.75200
0.16170	0.00000	5109.75200
0.16554	0.00000	5109.75200
0.16937	0.00000	5109.75200
0.17319	0.00000	5109.75200
0.17701	0.00000	5039.38300
0.18084	0.00000	5039.38300
0.18468	0.00000	5039.38300
0.18851	0.00000	5039.38300
0.19233	0.00000	5039.38300
0.19616	0.00000	5039.38300
0.19999	0.00000	4989.58300
0.20382	0.00000	4989.58300
0.20766	0.00000	4989.58300
0.21148	0.00000	4989.58300
0.21531	0.00000	4989.58300
0.21914	0.00000	4989.58300
0.22297	0.00000	4940.30900
0.22681	0.00000	4940.30900
0.23063	0.00000	4940.30900
0.23446	0.00000	4940.30900
0.23828	0.00000	4940.30900
0.24211	0.00000	4940.30900
0.24593	0.00000	4897.30800
0.24976	0.00000	4897.30800
0.25358	0.00000	4897.30800
0.25741	0.00000	4897.30800
0.26124	0.00000	4897.30800
0.26507	0.00000	4897.30800
0.26892	0.00000	4866.45300
0.27274	0.00000	4866.45300
0.27657	0.00000	4866.45300
0.28039	0.00000	4866.45300
0.28423	0.00000	4866.45300
0.28806	0.00000	4866.45300
0.29190	0.00000	4851.36100
0.29573	0.00000	4851.36100
0.29956	0.00000	4851.36100
0.30339	0.00000	4851.36100
0.30722	0.00000	4851.36100
0.31105	0.00000	4851.36100
0.31487	0.00000	4819.88500
0.31871	0.00000	4819.88500
0.32253	0.00000	4819.88500
0.32636	0.00000	4819.88500
0.33019	0.00000	4819.88500
0.33402	0.00000	4819.88500
0.33785	0.00000	4806.71900
0.34168	0.00000	4806.71900
0.34552	0.00000	4806.71900
0.34936	0.00000	4806.71900
0.35319	0.00000	4806.71900
0.35703	0.00000	4806.71900
0.36085	0.00000	4782.88500
0.36469	0.00000	4782.88500
0.36852	0.00000	4782.88500
0.37236	0.00000	4782.88500
0.37619	0.00000	4782.88500
0.38002	0.00000	4791.97200
0.38386	0.00000	4791.97200
0.38770	0.00000	4791.97200
0.39153	0.00000	4791.97200
0.39537	0.00000	4791.97200
0.39920	0.00000	4791.97200
0.40303	0.00000	4766.76300
0.40685	0.00000	4766.76300
0.41068	0.00000	4766.76300
0.41451	0.00000	4766.76300
0.41834	0.00000	4766.76300
0.42218	0.00000	4766.76300
0.42602	0.00000	4758.77200
0.42984	0.00000	4758.77200
0.43369	0.00000	4758.77200
0.43752	0.00000	4758.77200
0.44135	0.00000	4758.77200
0.44517	0.00000	4758.77200
0.44901	0.00000	4756.23100
0.45285	0.00000	4756.23100
0.45668	0.00000	4756.23100
0.46052	0.00000	4756.23100
0.46435	0.00000	4756.23100
0.46818	0.00000	4756.23100
0.47201	0.00000	4767.22800
0.47583	0.00000	4767.22800
0.47967	0.00000	4767.22800
0.48351	0.00000	4767.22800
0.48734	0.00000	4767.22800
0.49117	0.00000	4745.74700
0.49500	0.00000	4745.74700
0.49882	0.00000	4745.74700
0.50266	0.00000	4745.74700
0.50649	0.00000	4745.74700
0.51032	0.00000	4745.74700
0.51416	0.00000	4745.57500
0.51799	0.00000	4745.57500
0.52182	0.00000	4745.57500
0.52565	0.00000	4745.57500
0.52949	0.00000	4745.57500
0.53332	0.00000	4745.57500
0.53715	0.00000	4739.88900
0.54098	0.00000	4739.88900
0.54482	0.00000	4739.88900
0.54865	0.00000	4739.88900
0.55248	0.00000	4739.88900
0.55631	0.00000	4739.88900
0.56016	0.00000	4748.34000
0.56399	0.00000	4748.34000
0.56784	0.00000	4748.34000
0.57168	0.00000	4748.34000
0.57552	0.00000	4748.34000
0.57934	0.00000	4748.34000
0.58316	0.00000	4726.21700
0.58700	0.00000	4726.21700
0.59084	0.00000	4726.21700
0.59468	0.00000	4726.21700
0.59850	0.00000	4726.21700
0.60233	0.00000	4745.74700
0.60617	0.00000	4745.74700
0.61000	0.00000	4745.74700
0.61383	0.00000	4745.74700
0.61767	0.00000	4745.74700
0.62149	0.00000	4745.74700
0.62532	0.00000	4740.04400
0.62915	0.00000	4740.04400
0.63298	0.00000	4740.04400
0.63681	0.00000	4740.04400
0.64064	0.00000	4740.04400
0.64448	0.00000	4740.04400
0.64831	0.00000	4728.86000
0.65214	0.00000	4728.86000
0.65597	0.00000	4728.86000
0.65981	0.00000	4728.86000
0.66364	0.00000	4728.86000
0.66747	0.00000	4728.86000
0.67130	0.00000	4745.57500
0.67513	0.00000	4745.57500
0.67897	0.00000	4745.57500
0.68279	0.00000	4745.57500
0.68663	0.00000	4745.57500
0.69046	0.00000	4729.10500
0.69429	0.00000	4729.10500
0.69811	0.00000	4729.10500
0.70194	0.00000	4729.10500
0.70577	0.00000	4729.10500
0.70959	0.00000	4729.10500
0.71342	0.00000	4731.87800
0.71726	0.00000	4731.87800
0.72109	0.00000	4731.87800
0.72493	0.00000	4731.87800
0.72873	0.00000	4731.87800
0.73257	0.00000	4731.87800
0.73641	0.00000	4734.51300
0.74025	0.00000	4734.51300
0.74409	0.00000	4734.51300
0.74792	0.00000	4734.51300
0.75175	0.00000	4734.51300
0.75559	0.00000	4734.51300
0.75944	0.00000	4734.37500
0.76327	0.00000	4734.37500
0.76710	0.00000	4734.37500
0.77093	0.00000	4734.37500
0.77476	0.00000	4734.37500
0.77860	0.00000	4734.37500
0.78241	0.00000	4720.78400
0.78624	0.00000	4720.78400
0.79007	0.00000	4720.78400
0.79390	0.00000	4720.78400
0.79773	0.00000	4720.78400
0.80156	0.00000	4732.01000
0.80539	0.00000	4732.01000
0.80922	0.00000	4732.01000
0.81304	0.00000	4732.01000
0.81690	0.00000	4732.01000
0.82073	0.00000	4732.01000
0.82457	0.00000	4717.83100
0.82840	0.00000	4717.83100
0.83222	0.00000	4717.83100
0.83605	0.00000	4717.83100
0.83989	0.00000	4717.83100
0.84372	0.00000	4717.83100
0.84755	0.00000	4734.51300
0.85137	0.00000	4734.51300
0.85522	0.00000	4734.51300
0.85905	0.00000	4734.51300
0.86288	0.00000	4734.51300
0.86671	0.00000	4734.51300
0.87054	0.00000	4734.65200
0.87437	0.00000	4734.65200
0.87820	0.00000	4734.65200
0.88203	0.00000	4734.65200
0.88587	0.00000	4734.65200
0.88970	0.00000	4732.01000
0.89353	0.00000	4732.01000
0.89736	0.00000	4732.01000
0.90119	0.00000	4732.01000
0.90502	0.00000	4732.01000
0.90885	0.00000	4732.01000
0.91268	0.00000	4717.92000
0.91652	0.00000	4717.92000
0.92035	0.00000	4717.92000
0.92418	0.00000	4717.92000
0.92801	0.00000	4717.92000
0.93184	0.00000	4717.92000
0.93568	0.00000	4723.45100
0.93952	0.00000	4723.45100
0.94335	0.00000	4723.45100
0.94718	0.00000	4723.45100
0.95100	0.00000	4723.45100
0.95484	0.00000	4723.45100
0.95868	0.00000	4723.45100
0.96251	0.00000	4723.45100
0.96633	0.00000	4723.45100
0.97016	0.00000	4723.45100
0.97399	0.00000	4723.45100
0.97782	0.00000	4723.66400
0.98166	0.00000	4723.66400
0.98549	0.00000	4723.66400
0.98933	0.00000	4723.66400
0.99316	0.00000	4723.66400
0.99699	0.00000	4723.66400
1.00082	0.00000	4718.01000
1.00465	0.00000	4718.01000
1.00849	0.00000	4718.01000
1.01231	0.00000	4718.01000
1.01614	0.00000	4718.01000
1.01997	0.00000	4718.01000
1.02380	0.00000	4715.15500
1.02762	0.00000	4715.15500
1.03146	0.00000	4715.15500
1.03529	0.00000	4715.15500
1.03911	0.00000	4715.15500
1.04294	0.00000	4715.15500
1.04678	0.00000	4720.78400
1.05061	0.00000	4720.78400
1.05443	0.00000	4720.78400
1.05827	0.00000	4720.78400
1.06210	0.00000	4720.78400
1.06593	0.00000	4723.66400
1.06977	0.00000	4723.66400
1.07360	0.00000	4723.66400
1.07743	0.00000	4723.66400
1.08126	0.00000	4723.66400
1.08510	0.00000	4723.66400
1.08892	0.00000	4729.22800
1.09274	0.00000	4729.22800
1.09658	0.00000	4729.22800
1.10041	0.00000	4729.22800
1.10424	0.00000	4729.22800
1.10808	0.00000	4729.22800
1.11191	0.00000	4723.45100
1.11574	0.00000	4723.45100
1.11957	0.00000	4723.45100
1.12340	0.00000	4723.45100
1.12722	0.00000	4723.45100
1.13105	0.00000	4723.45100
1.13489	0.00000	4717.92000
1.13872	0.00000	4717.92000
1.14254	0.00000	4717.92000
1.14638	0.00000	4717.92000
1.15021	0.00000	4717.92000
1.15404	0.00000	4717.92000
1.15786	0.00000	4726.44700
1.16170	0.00000	4726.44700
1.16554	0.00000	4726.44700
1.16937	0.00000	4726.44700
1.17320	0.00000	4726.44700
1.17703	0.00000	4720.88300
1.18086	0.00000	4720.88300
1.18470	0.00000	4720.88300
1.18855	0.00000	4720.88300
1.19237	0.00000	4720.88300
1.19621	0.00000	4720.88300
1.20003	0.00000	4720.68500
1.20387	0.00000	4720.68500
1.20770	0.00000	4720.68500
1.21152	0.00000	4720.68500
1.21536	0.00000	4720.68500
1.21918	0.00000	4720.68500
1.22301	0.00000	4712.38900
1.22684	0.00000	4712.38900
1.23066	0.00000	4712.38900
1.23452	0.00000	4712.38900
1.23835	0.00000	4712.38900
1.24217	0.00000	4712.38900
1.24600	0.00000	4723.55700
1.24984	0.00000	4723.55700
1.25367	0.00000	4723.55700
1.25751	0.00000	4723.55700
1.26134	0.00000	4723.55700
1.26517	0.00000	4726.44700
1.26900	0.00000	4726.44700
1.27283	0.00000	4726.44700
1.27666	0.00000	4726.44700
1.28048	0.00000	4726.44700
1.28431	0.00000	4726.44700
1.28814	0.00000	4720.68500
1.29195	0.00000	4720.68500
1.29579	0.00000	4720.68500
1.29962	0.00000	4720.68500
1.30345	0.00000	4720.68500
1.30728	0.00000	4720.68500
1.31111	0.00000	4715.15500
1.31493	0.00000	4715.15500
1.31876	0.00000	4715.15500
1.32260	0.00000	4715.15500
1.32642	0.00000	4715.15500
1.33025	0.00000	4715.15500
1.33408	0.00000	4729.10500
1.33790	0.00000	4729.10500
1.34174	0.00000	4729.10500
1.34557	0.00000	4729.10500
1.34941	0.00000	4729.10500
1.35324	0.00000	4718.10100
1.35707	0.00000	4718.10100
1.36090	0.00000	4718.10100
1.36473	0.00000	4718.10100
1.36857	0.00000	4718.10100
1.37239	0.00000	4718.10100
1.37623	0.00000	4720.68500
1.38007	0.00000	4720.68500
1.38389	0.00000	4720.68500
1.38773	0.00000	4720.68500
1.39156	0.00000	4720.68500
1.39539	0.00000	4720.68500
1.39923	0.00000	4717.92000
1.40306	0.00000	4717.92000
1.40689	0.00000	4717.92000
1.41072	0.00000	4717.92000
1.41456	0.00000	4717.92000
1.41839	0.00000	4717.92000
1.42221	0.00000	4720.68500
1.42604	0.00000	4720.68500
1.42986	0.00000	4720.68500
1.43369	0.00000	4720.68500
1.43752	0.00000	4720.68500
1.44134	0.00000	4723.77200
1.44517	0.00000	4723.77200
1.44899	0.00000	4723.77200
1.45284	0.00000	4723.77200
1.45667	0.00000	4723.77200
1.46050	0.00000	4723.77200
1.46433	0.00000	4726.44700
1.46816	0.00000	4726.44700
1.47199	0.00000	4726.44700
1.47581	0.00000	4726.44700
1.47964	0.00000	4726.44700
1.48346	0.00000	4726.44700
1.48730	0.00000	4717.92000
1.49113	0.00000	4717.92000
1.49496	0.00000	4717.92000
1.49879	0.00000	4717.92000
1.50261	0.00000	4717.92000
1.50643	0.00000	4717.92000
1.51026	0.00000	4720.68500
1.51408	0.00000	4720.68500
1.51791	0.00000	4720.68500
1.52174	0.00000	4720.68500
1.52557	0.00000	4720.68500
1.52941	0.00000	4718.10100
1.53325	0.00000	4718.10100
1.53708	0.00000	4718.10100
1.54092	0.00000	4718.10100
1.54474	0.00000	4718.10100
1.54856	0.00000	4718.10100
1.55239	0.00000	4723.66400
1.55622	0.00000	4723.66400
1.56004	0.00000	4723.66400
1.56387	0.00000	4723.66400
1.56769	0.00000	4723.66400
1.57153	0.00000	4723.66400
1.57535	0.00000	4715.23700
1.57918	0.00000	4715.23700
1.58301	0.00000	4715.23700
1.58685	0.00000	4715.23700
1.59069	0.00000	4715.23700
1.59452	0.00000	4715.23700
1.59834	0.00000	4723.45100
1.60217	0.00000	4723.45100
1.60601	0.00000	4723.45100
1.60984	0.00000	4723.45100
1.61366	0.00000	4723.45100
1.61749	0.00000	4723.45100
1.62131	0.00000	4723.55700
1.62514	0.00000	4723.55700
1.62898	0.00000	4723.55700
1.63281	0.00000	4723.55700
1.63664	0.00000	4723.55700
1.64048	0.00000	4729.35200
1.64430	0.00000	4729.35200
1.64813	0.00000	4729.35200
1.65196	0.00000	4729.35200
1.65580	0.00000	4729.35200
1.65962	0.00000	4729.35200
1.66345	0.00000	4723.55700
1.66728	0.00000	4723.55700
1.67110	0.00000	4723.55700
1.67493	0.00000	4723.55700
1.67876	0.00000	4723.55700
1.68260	0.00000	4723.55700
1.68642	0.00000	4709.62300
1.69024	0.00000	4709.62300
1.69407	0.00000	4709.62300
1.69791	0.00000	4709.62300
1.70173	0.00000	4709.62300
1.70555	0.00000	4709.62300
1.70938	0.00000	4712.38900
1.71321	0.00000	4712.38900
1.71705	0.00000	4712.38900
1.72088	0.00000	4712.38900
1.72471	0.00000	4712.38900
1.72855	0.00000	4723.77200
1.73238	0.00000	4723.77200
1.73621	0.00000	4723.77200
1.74005	0.00000	4723.77200
1.74387	0.00000	4723.77200
1.74770	0.00000	4723.77200
1.75152	0.00000	4720.68500
1.75535	0.00000	4720.68500
1.75918	0.00000	4720.68500
1.76303	0.00000	4720.68500
1.76685	0.00000	4720.68500
1.77068	0.00000	4720.68500
1.77452	0.00000	4717.83100
1.77835	0.00000	4717.83100
1.78218	0.00000	4717.83100
1.78604	0.00000	4717.83100
1.78988	0.00000	4717.83100
1.79372	0.00000	4717.83100
1.79755	0.00000	4720.68500
1.80139	0.00000	4720.68500
1.80521	0.00000	4720.68500
1.80904	0.00000	4720.68500
1.81287	0.00000	4720.68500
1.81671	0.00000	4723.77200
1.82055	0.00000	4723.77200
1.82438	0.00000	4723.77200
1.82821	0.00000	4723.77200
1.83205	0.00000	4723.77200
1.83587	0.00000	4723.77200
1.83970	0.00000	4717.92000
1.84354	0.00000	4717.92000
1.84737	0.00000	4717.92000
1.85120	0.00000	4717.92000
1.85503	0.00000	4717.92000
1.85886	0.00000	4717.92000
1.86270	0.00000	4720.68500
1.86653	0.00000	4720.68500
1.87036	0.00000	4720.68500
1.87420	0.00000	4720.68500
1.87803	0.00000	4720.68500
1.88186	0.00000	4720.68500
1.88569	0.00000	4712.38900
1.88951	0.00000	4712.38900
1.89334	0.00000	4712.38900
1.89718	0.00000	4712.38900
1.90102	0.00000	4712.38900
1.90485	0.00000	4715.31900
1.90867	0.00000	4715.31900
1.91250	0.00000	4715.31900
1.91634	0.00000	4715.31900
1.92018	0.00000	4715.31900
1.92401	0.00000	4715.31900
1.92785	0.00000	4709.68900
1.93167	0.00000	4709.68900
1.93551	0.00000	4709.68900
1.93934	0.00000	4709.68900
1.94316	0.00000	4709.68900
1.94699	0.00000	4709.68900
1.95081	0.00000	4715.15500
1.95464	0.00000	4715.15500
1.95847	0.00000	4715.15500
1.96230	0.00000	4715.15500
1.96613	0.00000	4715.15500
1.96996	0.00000	4715.15500
1.97379	0.00000	4734.65200
1.97762	0.00000	4734.65200
1.98150	0.00000	4734.65200
1.98535	0.00000	4734.65200
1.98919	0.00000	4734.65200
1.99303	0.00000	4712.53700
1.99686	0.00000	4712.53700
2.00069	0.00000	4712.53700
2.00452	0.00000	4712.53700
2.00835	0.00000	4712.53700
2.01218	0.00000	4712.53700
2.01601	0.00000	4726.44700
2.01983	0.00000	4726.44700
2.02367	0.00000	4726.44700
2.02751	0.00000	4726.44700
2.03135	0.00000	4726.44700
2.03518	0.00000	4726.44700
2.03901	0.00000	4723.45100
2.04283	0.00000	4723.45100
2.04667	0.00000	4723.45100
2.05050	0.00000	4723.45100
2.05433	0.00000	4723.45100
2.05817	0.00000	4723.45100
2.06199	0.00000	4715.15500
2.06582	0.00000	4715.15500
2.06964	0.00000	4715.15500
2.07348	0.00000	4715.15500
2.07730	0.00000	4715.15500
2.08114	0.00000	4718.19200
2.08496	0.00000	4718.19200
2.08879	0.00000	4718.19200
2.09262	0.00000	4718.19200
2.09645	0.00000	4718.19200
2.10028	0.00000	4718.19200
2.10412	0.00000	4723.66400
2.10795	0.00000	4723.66400
2.11179	0.00000	4723.66400
2.11562	0.00000	4723.66400
2.11945	0.00000	4723.66400
2.12329	0.00000	4723.66400
2.12711	0.00000	4717.92000
2.13094	0.00000	4717.92000
2.13478	0.00000	4717.92000
2.13860	0.00000	4717.92000
2.14242	0.00000	4717.92000
2.14625	0.00000	4717.92000
2.15007	0.00000	4726.21700
2.15390	0.00000	4726.21700
2.15773	0.00000	4726.21700
2.16155	0.00000	4726.21700
2.16539	0.00000	4726.21700
2.16922	0.00000	4726.21700
2.17305	0.00000	4718.01000
2.17687	0.00000	4718.01000
2.18071	0.00000	4718.01000
2.18455	0.00000	4718.01000
2.18839	0.00000	4718.01000
2.19222	0.00000	4723.66400
2.19604	0.00000	4723.66400
2.19986	0.00000	4723.66400
2.20369	0.00000	4723.66400
2.20753	0.00000	4723.66400
2.21136	0.00000	4723.66400
2.21520	0.00000	4720.78400
2.21902	0.00000	4720.78400
2.22285	0.00000	4720.78400
2.22668	0.00000	4720.78400
2.23051	0.00000	4720.78400
2.23434	0.00000	4720.78400
2.23817	0.00000	4726.33100
2.24200	0.00000	4726.33100
2.24583	0.00000	4726.33100
2.24966	0.00000	4726.33100
2.25348	0.00000	4726.33100
2.25732	0.00000	4726.33100
2.26114	0.00000	4731.87800
2.26498	0.00000	4731.87800
2.26882	0.00000	4731.87800
2.27266	0.00000	4731.87800
2.27649	0.00000	4731.87800
2.28032	0.00000	4718.10100
2.28414	0.00000	4718.10100
2.28798	0.00000	4718.10100
2.29182	0.00000	4718.10100
2.29564	0.00000	4718.10100
2.29947	0.00000	4718.10100
2.30329	0.00000	4728.98200
2.30712	0.00000	4728.98200
2.31094	0.00000	4728.98200
2.31478	0.00000	4728.98200
2.31861	0.00000	4728.98200
2.32245	0.00000	4728.98200
2.32628	0.00000	4723.45100
2.33010	0.00000	4723.45100
2.33392	0.00000	4723.45100
2.33775	0.00000	4723.45100
2.34159	0.00000	4723.45100
2.34543	0.00000	4723.45100
2.34927	0.00000	4717.83100
2.35310	0.00000	4717.83100
2.35694	0.00000	4717.83100
2.36074	0.00000	4717.83100
2.36457	0.00000	4717.83100
2.36840	0.00000	4723.66400
2.37223	0.00000	4723.66400
2.37606	0.00000	4723.66400
2.37991	0.00000	4723.66400
2.38374	0.00000	4723.66400
2.38757	0.00000	4723.66400
2.39142	0.00000	4737.42600
2.39524	0.00000	4737.42600
2.39907	0.00000	4737.42600
2.40289	0.00000	4737.42600
2.40672	0.00000	4737.42600
2.41054	0.00000	4737.42600
2.41438	0.00000	4734.65200
2.41821	0.00000	4734.65200
2.42204	0.00000	4734.65200
2.42586	0.00000	4734.65200
2.42969	0.00000	4734.65200
2.43353	0.00000	4734.65200
2.43735	0.00000	4715.15500
2.44119	0.00000	4715.15500
2.44500	0.00000	4715.15500
2.44883	0.00000	4715.15500
2.45267	0.00000	4715.15500
2.45650	0.00000	4729.22800
2.46032	0.00000	4729.22800
2.46415	0.00000	4729.22800
2.46797	0.00000	4729.22800
2.47179	0.00000	4729.22800
2.47562	0.00000	4729.22800
2.47946	0.00000	4718.01000
2.48329	0.00000	4718.01000
2.48711	0.00000	4718.01000
2.49094	0.00000	4718.01000
2.49477	0.00000	4718.01000
2.49860	0.00000	4718.01000
2.50242	0.00000	4717.92000
2.50626	0.00000	4717.92000
2.51008	0.00000	4717.92000
2.51391	0.00000	4717.92000
2.51774	0.00000	4717.92000
2.52157	0.00000	4717.92000
2.52541	0.00000	4717.92000
2.52923	0.00000	4717.92000
2.53305	0.00000	4717.92000
2.53688	0.00000	4717.92000
2.54070	0.00000	4717.92000
2.54454	0.00000	4717.92000
2.54836	0.00000	4712.38900
2.55220	0.00000	4712.38900
2.55603	0.00000	4712.38900
2.55986	0.00000	4712.38900
2.56369	0.00000	4712.38900
2.56752	0.00000	4734.93300
2.57136	0.00000	4734.93300
2.57519	0.00000	4734.93300
2.57903	0.00000	4734.93300
2.58286	0.00000	4734.93300
2.58670	0.00000	4734.93300
2.59053	0.00000	4717.92000
2.59436	0.00000	4717.92000
2.59819	0.00000	4717.92000
2.60202	0.00000	4717.92000
2.60585	0.00000	4717.92000
2.60967	0.00000	4717.92000
2.61350	0.00000	4731.87800
2.61733	0.00000	4731.87800
2.62115	0.00000	4731.87800
2.62499	0.00000	4731.87800
2.62881	0.00000	4731.87800
2.63264	0.00000	4731.87800
2.63647	0.00000	4720.68500
2.64031	0.00000	4720.68500
2.64413	0.00000	4720.68500
2.64796	0.00000	4720.68500
2.65179	0.00000	4720.68500
2.65563	0.00000	4726.44700
2.65949	0.00000	4726.44700
2.66332	0.00000	4726.44700
2.66715	0.00000	4726.44700
2.67098	0.00000	4726.44700
2.67481	0.00000	4726.44700
2.67864	0.00000	4726.33100
2.68248	0.00000	4726.33100
2.68631	0.00000	4726.33100
2.69015	0.00000	4726.33100
2.69398	0.00000	4726.33100
2.69781	0.00000	4726.33100
2.70164	0.00000	4723.45100
2.70548	0.00000	4723.45100
2.70931	0.00000	4723.45100
2.71314	0.00000	4723.45100
2.71697	0.00000	4723.45100
2.72081	0.00000	4723.45100
2.72464	0.00000	4715.15500
2.72846	0.00000	4715.15500
2.73229	0.00000	4715.15500
2.73613	0.00000	4715.15500
2.73996	0.00000	4715.15500
2.74380	0.00000	4720.88300
2.74765	0.00000	4720.88300
2.75148	0.00000	4720.88300
2.75531	0.00000	4720.88300
2.75915	0.00000	4720.88300
2.76298	0.00000	4720.88300
2.76681	0.00000	4729.22800
2.77063	0.00000	4729.22800
2.77446	0.00000	4729.22800
2.77830	0.00000	4729.22800
2.78212	0.00000	4729.22800
2.78595	0.00000	4729.22800
2.78977	0.00000	4726.21700
2.79360	0.00000	4726.21700
2.79743	0.00000	4726.21700
2.80127	0.00000	4726.21700
2.80510	0.00000	4726.21700
2.80894	0.00000	4726.21700
2.81274	0.00000	4726.21700
2.81657	0.00000	4726.21700
2.82040	0.00000	4726.21700
2.82422	0.00000	4726.21700
2.82806	0.00000	4726.21700
2.83188	0.00000	4720.88300
2.83570	0.00000	4720.88300
2.83953	0.00000	4720.88300
2.84336	0.00000	4720.88300
2.84719	0.00000	4720.88300
2.85102	0.00000	4720.88300
2.85485	0.00000	4715.31900
2.85869	0.00000	4715.31900
2.86252	0.00000	4715.31900
2.86635	0.00000	4715.31900
2.87018	0.00000	4715.31900
2.87401	0.00000	4715.31900
2.87784	0.00000	4712.38900
2.88168	0.00000	4712.38900
2.88551	0.00000	4712.38900
2.88934	0.00000	4712.38900
2.89317	0.00000	4712.38900
2.89700	0.00000	4712.38900
2.90085	0.00000	4723.45100
2.90467	0.00000	4723.45100
2.90850	0.00000	4723.45100
2.91233	0.00000	4723.45100
2.91617	0.00000	4723.45100
2.92000	0.00000	4723.45100
2.92382	0.00000	4712.46300
2.92765	0.00000	4712.46300
2.93148	0.00000	4712.46300
2.93532	0.00000	4712.46300
2.93915	0.00000	4712.46300
2.94298	0.00000	4715.31900
2.94681	0.00000	4715.31900
2.95065	0.00000	4715.31900
2.95448	0.00000	4715.31900
2.95830	0.00000	4715.31900
2.96213	0.00000	4715.31900
2.96596	0.00000	4712.38900
2.96979	0.00000	4712.38900
2.97362	0.00000	4712.38900
2.97745	0.00000	4712.38900
2.98130	0.00000	4712.38900
2.98512	0.00000	4712.38900
2.98895	0.00000	4717.92000
2.99273	0.00000	4717.92000
2.99657	0.00000	4717.92000
3.00039	0.00000	4717.92000
3.00422	0.00000	4717.92000
3.00805	0.00000	4717.92000
3.01187	0.00000	4718.01000
3.01570	0.00000	4718.01000
3.01953	0.00000	4718.01000
3.02337	0.00000	4718.01000
3.02720	0.00000	4718.01000
3.03103	0.00000	4715.31900
3.03486	0.00000	4715.31900
3.03870	0.00000	4715.31900
3.04256	0.00000	4715.31900
3.04639	0.00000	4715.31900
3.05023	0.00000	4715.31900
3.05406	0.00000	4715.15500
3.05789	0.00000	4715.15500
3.06172	0.00000	4715.15500
3.06556	0.00000	4715.15500
3.06939	0.00000	4715.15500
3.07322	0.00000	4715.15500
3.07705	0.00000	4720.68500
3.08088	0.00000	4720.68500
3.08471	0.00000	4720.68500
3.08855	0.00000	4720.68500
3.09237	0.00000	4720.68500
3.09620	0.00000	4720.68500
3.10003	0.00000	4709.62300
3.10386	0.00000	4709.62300
3.10768	0.00000	4709.62300
3.11151	0.00000	4709.62300
3.11534	0.00000	4709.62300
3.11917	0.00000	4723.77200
3.12302	0.00000	4723.77200
3.12685	0.00000	4723.77200
3.13068	0.00000	4723.77200
3.13450	0.00000	4723.77200
3.13833	0.00000	4723.77200
3.14215	0.00000	4726.33100
3.14599	0.00000	4726.33100
3.14982	0.00000	4726.33100
3.15365	0.00000	4726.33100
3.15748	0.00000	4726.33100
3.16131	0.00000	4726.33100
3.16514	0.00000	4712.46300
3.16898	0.00000	4712.46300
3.17281	0.00000	4712.46300
3.17664	0.00000	4712.46300
3.18047	0.00000	4712.46300
3.18430	0.00000	4712.46300
3.18814	0.00000	4726.33100
3.19196	0.00000	4726.33100
3.19579	0.00000	4726.33100
3.19963	0.00000	4726.33100
3.20347	0.00000	4726.33100
3.20730	0.00000	4712.53700
3.21113	0.00000	4712.53700
3.21496	0.00000	4712.53700
3.21880	0.00000	4712.53700
3.22262	0.00000	4712.53700
3.22646	0.00000	4712.53700
3.23028	0.00000	4715.23700
3.23412	0.00000	4715.23700
3.23795	0.00000	4715.23700
3.24179	0.00000	4715.23700
3.24562	0.00000	4715.23700
3.24946	0.00000	4715.23700
3.25329	0.00000	4715.15500
3.25713	0.00000	4715.15500
3.26095	0.00000	4715.15500
3.26478	0.00000	4715.15500
3.26862	0.00000	4715.15500
3.27244	0.00000	4715.15500
3.27628	0.00000	4726.33100
3.28011	0.00000	4726.33100
3.28395	0.00000	4726.33100
3.28778	0.00000	4726.33100
3.29161	0.00000	4726.33100
3.29545	0.00000	4718.10100
3.29929	0.00000	4718.10100
3.30314	0.00000	4718.10100
3.30698	0.00000	4718.10100
3.31081	0.00000	4718.10100
3.31465	0.00000	4718.10100
3.31847	0.00000	4720.78400
3.32230	0.00000	4720.78400
3.32613	0.00000	4720.78400
3.32997	0.00000	4720.78400
3.33379	0.00000	4720.78400
3.33763	0.00000	4720.78400
3.34146	0.00000	4715.23700
3.34529	0.00000	4715.23700
3.34911	0.00000	4715.23700
3.35294	0.00000	4715.23700
3.35674	0.00000	4715.23700
3.36057	0.00000	4715.23700
3.36440	0.00000	4715.23700
3.36823	0.00000	4715.23700
3.37207	0.00000	4715.23700
3.37590	0.00000	4715.23700
3.37973	0.00000	4715.23700
3.38357	0.00000	4723.77200
3.38739	0.00000	4723.77200
3.39122	0.00000	4723.77200
3.39505	0.00000	4723.77200
3.39888	0.00000	4723.77200
3.40270	0.00000	4723.77200
3.40653	0.00000	4715.31900
3.41036	0.00000	4715.31900
3.41419	0.00000	4715.31900
3.41802	0.00000	4715.31900
3.42186	0.00000	4715.31900
3.42568	0.00000	4715.31900
3.42951	0.00000	4695.79600
3.43334	0.00000	4695.79600
3.43718	0.00000	4695.79600
3.44101	0.00000	4695.79600
3.44484	0.00000	4695.79600
3.44867	0.00000	4695.79600
3.45249	0.00000	4715.15500
3.45632	0.00000	4715.15500
3.46016	0.00000	4715.15500
3.46398	0.00000	4715.15500
3.46781	0.00000	4715.15500
3.47165	0.00000	4723.77200
3.47547	0.00000	4723.77200
3.47931	0.00000	4723.77200
3.48313	0.00000	4723.77200
3.48696	0.00000	4723.77200
3.49079	0.00000	4723.77200
3.49461	0.00000	4718.19200
3.49844	0.00000	4718.19200
3.50227	0.00000	4718.19200
3.50610	0.00000	4718.19200
3.50993	0.00000	4718.19200
3.51376	0.00000	4718.19200
3.51758	0.00000	4712.46300
3.52141	0.00000	4712.46300
3.52525	0.00000	4712.46300
3.52908	0.00000	4712.46300
3.53292	0.00000	4712.46300
3.53673	0.00000	4712.46300
3.54057	0.00000	4706.85800
3.54440	0.00000	4706.85800
3.54822	0.00000	4706.85800
3.55205	0.00000	4706.85800
3.55588	0.00000	4706.85800
3.55971	0.00000	4715.31900
3.56353	0.00000	4715.31900
3.56736	0.00000	4715.31900
3.57119	0.00000	4715.31900
3.57502	0.00000	4715.31900
3.57885	0.00000	4715.31900
3.58268	0.00000	4720.98200
3.58652	0.00000	4720.98200
3.59034	0.00000	4720.98200
3.59417	0.00000	4720.98200
3.59801	0.00000	4720.98200
3.60183	0.00000	4720.98200
3.60565	0.00000	4718.01000
3.60948	0.00000	4718.01000
3.61331	0.00000	4718.01000
3.61714	0.00000	4718.01000
3.62096	0.00000	4718.01000
3.62480	0.00000	4718.01000
3.62864	0.00000	4709.68900
3.63249	0.00000	4709.68900
3.63633	0.00000	4709.68900
3.64017	0.00000	4709.68900
3.64401	0.00000	4709.68900
3.64784	0.00000	4707.03100
3.65166	0.00000	4707.03100
3.65550	0.00000	4707.03100
3.65933	0.00000	4707.03100
3.66315	0.00000	4707.03100
3.66698	0.00000	4707.03100
3.67081	0.00000	4715.40200
3.67464	0.00000	4715.40200
3.67847	0.00000	4715.40200
3.68230	0.00000	4715.40200
3.68614	0.00000	4715.40200
3.68998	0.00000	4715.40200
3.69381	0.00000	4723.55700
3.69764	0.00000	4723.55700
3.70146	0.00000	4723.55700
3.70529	0.00000	4723.55700
3.70912	0.00000	4723.55700
3.71294	0.00000	4723.55700
3.71674	0.00000	4706.91500
3.72056	0.00000	4706.91500
3.72439	0.00000	4706.91500
3.72824	0.00000	4706.91500
3.73207	0.00000	4706.91500
3.73590	0.00000	4715.40200
3.73971	0.00000	4715.40200
3.74354	0.00000	4715.40200
3.74736	0.00000	4715.40200
3.75119	0.00000	4715.40200
3.75502	0.00000	4715.40200
3.75885	0.00000	4706.97300
3.76268	0.00000	4706.97300
3.76651	0.00000	4706.97300
3.77034	0.00000	4706.97300
3.77418	0.00000	4706.97300
3.77801	0.00000	4706.97300
3.78183	0.00000	4709.62300
3.78567	0.00000	4709.62300
3.78950	0.00000	4709.62300
3.79334	0.00000	4709.62300
3.79716	0.00000	4709.62300
3.80099	0.00000	4709.62300
3.80482	0.00000	4709.62300
3.80866	0.00000	4709.62300
3.81249	0.00000	4709.62300
3.81632	0.00000	4709.62300
3.82014	0.00000	4709.62300
3.82397	0.00000	4709.62300
3.82779	0.00000	4720.98200
3.83161	0.00000	4720.98200
3.83545	0.00000	4720.98200
3.83928	0.00000	4720.98200
3.84311	0.00000	4720.98200
3.84695	0.00000	4707.03100
3.85079	0.00000	4707.03100
3.85462	0.00000	4707.03100
3.85845	0.00000	4707.03100
3.86228	0.00000	4707.03100
3.86611	0.00000	4707.03100
3.86994	0.00000	4706.91500
3.87377	0.00000	4706.91500
3.87760	0.00000	4706.91500
3.88144	0.00000	4706.91500
3.88527	0.00000	4706.91500
3.88910	0.00000	4706.91500
3.89292	0.00000	4704.14200
3.89673	0.00000	4704.14200
3.90056	0.00000	4704.14200
3.90438	0.00000	4704.14200
3.90822	0.00000	4704.14200
3.91204	0.00000	4701.45100
3.91586	0.00000	4701.45100
3.91969	0.00000	4701.45100
3.92352	0.00000	4701.45100
3.92735	0.00000	4701.45100
3.93118	0.00000	4701.45100
3.93501	0.00000	4698.66000
3.93884	0.00000	4698.66000
3.94267	0.00000	4698.66000
3.94650	0.00000	4698.66000
3.95035	0.00000	4698.66000
3.95418	0.00000	4698.66000
3.95800	0.00000	4704.14200
3.96184	0.00000	4704.14200
3.96567	0.00000	4704.14200
3.96949	0.00000	4704.14200
3.97332	0.00000	4704.14200
3.97714	0.00000	4704.14200
3.98098	0.00000	4698.59400
3.98480	0.00000	4698.59400
3.98863	0.00000	4698.59400
3.99245	0.00000	4698.59400
3.99628	0.00000	4698.59400
4.00013	0.00000	4718.28300
4.00397	0.00000	4718.28300
4.00781	0.00000	4718.28300
4.01164	0.00000	4718.28300
4.01547	0.00000	4718.28300
4.01930	0.00000	4718.28300
4.02313	0.00000	4698.62700
4.02696	0.00000	4698.62700
4.03080	0.00000	4698.62700
4.03464	0.00000	4698.62700
4.03847	0.00000	4698.62700
4.04231	0.00000	4698.62700
4.04614	0.00000	4712.46300
4.04997	0.00000	4712.46300
4.05378	0.00000	4712.46300
4.05762	0.00000	4712.46300
4.06145	0.00000	4712.46300
4.06528	0.00000	4712.46300
4.06910	0.00000	4695.82100
4.07293	0.00000	4695.82100
4.07674	0.00000	4695.82100
4.08057	0.00000	4695.82100
4.08440	0.00000	4695.82100
4.08823	0.00000	4720.98200
4.09205	0.00000	4720.98200
4.09587	0.00000	4720.98200
4.09970	0.00000	4720.98200
4.10354	0.00000	4720.98200
4.10737	0.00000	4720.98200
4.11119	0.00000	4704.19100
4.11503	0.00000	4704.19100
4.11887	0.00000	4704.19100
4.12269	0.00000	4704.19100
4.12652	0.00000	4704.19100
4.13034	0.00000	4704.19100
4.13417	0.00000	4704.14200
4.13799	0.00000	4704.14200
4.14183	0.00000	4704.14200
4.14566	0.00000	4704.14200
4.14949	0.00000	4704.14200
4.15332	0.00000	4704.14200
4.15716	0.00000	4709.75500
4.16099	0.00000	4709.75500
4.16482	0.00000	4709.75500
4.16865	0.00000	4709.75500
4.17247	0.00000	4709.75500
4.17629	0.00000	4709.82100
4.18011	0.00000	4709.82100
4.18395	0.00000	4709.82100
4.18778	0.00000	4709.82100
4.19160	0.00000	4709.82100
4.19543	0.00000	4709.82100
4.19925	0.00000	4704.19100
4.20308	0.00000	4704.19100
4.20690	0.00000	4704.19100
4.21072	0.00000	4704.19100
4.21456	0.00000	4704.19100
4.21839	0.00000	4704.19100
4.22221	0.00000	4715.23700
4.22604	0.00000	4715.23700
4.22987	0.00000	4715.23700
4.23370	0.00000	4715.23700
4.23753	0.00000	4715.23700
4.24136	0.00000	4715.23700
4.24519	0.00000	4706.91500
4.24902	0.00000	4706.91500
4.25285	0.00000	4706.91500
4.25668	0.00000	4706.91500
4.26051	0.00000	4706.91500
4.26433	0.00000	4701.45100
4.26816	0.00000	4701.45100
4.27200	0.00000	4701.45100
4.27582	0.00000	4701.45100
4.27965	0.00000	4701.45100
4.28348	0.00000	4701.45100
4.28731	0.00000	4704.19100
4.29113	0.00000	4704.19100
4.29496	0.00000	4704.19100
4.29879	0.00000	4704.19100
4.30263	0.00000	4704.19100
4.30645	0.00000	4704.19100
4.31028	0.00000	4695.82100
4.31411	0.00000	4695.82100
4.31794	0.00000	4695.82100
4.32177	0.00000	4695.82100
4.32560	0.00000	4695.82100
4.32943	0.00000	4695.82100
4.33326	0.00000	4701.36800
4.33708	0.00000	4701.36800
4.34091	0.00000	4701.36800
4.34473	0.00000	4701.36800
4.34857	0.00000	4701.36800
4.35241	0.00000	4718.28300
4.35624	0.00000	4718.28300
4.36008	0.00000	4718.28300
4.36391	0.00000	4718.28300
4.36777	0.00000	4718.28300
4.37161	0.00000	4718.28300
4.37544	0.00000	4718.19200
4.37927	0.00000	4718.19200
4.38310	0.00000	4718.19200
4.38693	0.00000	4718.19200
4.39076	0.00000	4718.19200
4.39460	0.00000	4718.19200
4.39842	0.00000	4706.91500
4.40225	0.00000	4706.91500
4.40608	0.00000	4706.91500
4.40991	0.00000	4706.91500
4.41375	0.00000	4706.91500
4.41757	0.00000	4706.91500
4.42139	0.00000	4704.19100
4.42522	0.00000	4704.19100
4.42905	0.00000	4704.19100
4.43289	0.00000	4704.19100
4.43671	0.00000	4704.19100
4.44055	0.00000	4709.88800
4.44440	0.00000	4709.88800
4.44822	0.00000	4709.88800
4.45205	0.00000	4709.88800
4.45588	0.00000	4709.88800
4.45971	0.00000	4709.88800
4.46353	0.00000	4704.14200
4.46737	0.00000	4704.14200
4.47120	0.00000	4704.14200
4.47504	0.00000	4704.14200
4.47887	0.00000	4704.14200
4.48271	0.00000	4704.14200
4.48653	0.00000	4704.14200
4.49036	0.00000	4704.14200
4.49420	0.00000	4704.14200
4.49803	0.00000	4704.14200
4.50186	0.00000	4704.14200
4.50569	0.00000	4704.14200
4.50952	0.00000	4715.31900
4.51335	0.00000	4715.31900
4.51719	0.00000	4715.31900
4.52101	0.00000	4715.31900
4.52484	0.00000	4715.31900
4.52867	0.00000	4698.69400
4.53249	0.00000	4698.69400
4.53632	0.00000	4698.69400
4.54015	0.00000	4698.69400
4.54398	0.00000	4698.69400
4.54781	0.00000	4698.69400
4.55164	0.00000	4701.40900
4.55547	0.00000	4701.40900
4.55930	0.00000	4701.40900
4.56312	0.00000	4701.40900
4.56695	0.00000	4701.40900
4.57079	0.00000	4701.40900
4.57462	0.00000	4693.06400
4.57844	0.00000	4693.06400
4.58227	0.00000	4693.06400
4.58611	0.00000	4693.06400
4.58994	0.00000	4693.06400
4.59378	0.00000	4693.06400
4.59760	0.00000	4704.19100
4.60144	0.00000	4704.19100
4.60526	0.00000	4704.19100
4.60909	0.00000	4704.19100
4.61293	0.00000	4704.19100
4.61674	0.00000	4701.49200
4.62056	0.00000	4701.49200
4.62438	0.00000	4701.49200
4.62820	0.00000	4701.49200
4.63203	0.00000	4701.49200
4.63585	0.00000	4701.49200
4.63969	0.00000	4709.75500
4.64352	0.00000	4709.75500
4.64734	0.00000	4709.75500
4.65117	0.00000	4709.75500
4.65501	0.00000	4709.75500
4.65885	0.00000	4709.75500
4.66268	0.00000	4701.40900
4.66650	0.00000	4701.40900
4.67033	0.00000	4701.40900
4.67417	0.00000	4701.40900
4.67800	0.00000	4701.40900
4.68182	0.00000	4701.40900
4.68564	0.00000	4701.45100
4.68947	0.00000	4701.45100
4.69330	0.00000	4701.45100
4.69712	0.00000	4701.45100
4.70095	0.00000	4701.45100
4.70479	0.00000	4701.49200
4.70862	0.00000	4701.49200
4.71245	0.00000	4701.49200
4.71628	0.00000	4701.49200
4.72012	0.00000	4701.49200
4.72394	0.00000	4701.49200
4.72778	0.00000	4698.62700
4.73162	0.00000	4698.62700
4.73545	0.00000	4698.62700
4.73928	0.00000	4698.62700
4.74310	0.00000	4698.62700
4.74694	0.00000	4698.62700
4.75077	0.00000	4712.53700
4.75461	0.00000	4712.53700
4.75846	0.00000	4712.53700
4.76229	0.00000	4712.53700
4.76612	0.00000	4712.53700
4.76995	0.00000	4715.48500
4.77379	0.00000	4715.48500
4.77761	0.00000	4715.48500
4.78145	0.00000	4715.48500
4.78527	0.00000	4715.48500
4.78910	0.00000	4715.48500
4.79293	0.00000	4707.03100
4.79673	0.00000	4707.03100
4.80056	0.00000	4707.03100
4.80439	0.00000	4707.03100
4.80822	0.00000	4707.03100
4.81204	0.00000	4707.03100
4.81587	0.00000	4693.06400
4.81971	0.00000	4693.06400
4.82355	0.00000	4693.06400
4.82737	0.00000	4693.06400
4.83120	0.00000	4693.06400
4.83504	0.00000	4693.06400
4.83887	0.00000	4706.91500
4.84270	0.00000	4706.91500
4.84653	0.00000	4706.91500
4.85036	0.00000	4706.91500
4.85419	0.00000	4706.91500
4.85801	0.00000	4704.29100
4.86183	0.00000	4704.29100
4.86566	0.00000	4704.29100
4.86949	0.00000	4704.29100
4.87333	0.00000	4704.29100
4.87715	0.00000	4704.29100
4.88098	0.00000	4695.84500
4.88481	0.00000	4695.84500
4.88864	0.00000	4695.84500
4.89247	0.00000	4695.84500
4.89630	0.00000	4695.84500
4.90013	0.00000	4695.84500
4.90396	0.00000	4687.50000
4.90779	0.00000	4687.50000
4.91163	0.00000	4687.50000
4.91545	0.00000	4687.50000
4.91928	0.00000	4687.50000
4.92311	0.00000	4687.50000
4.92694	0.00000	4704.19100
4.93077	0.00000	4704.19100
4.93460	0.00000	4704.19100
4.93843	0.00000	4704.19100
4.94227	0.00000	4704.19100
4.94611	0.00000	4701.49200
4.94996	0.00000	4701.49200
4.95379	0.00000	4701.49200
4.95762	0.00000	4701.49200
4.96144	0.00000	4701.49200
4.96527	0.00000	4701.49200
4.96911	0.00000	4712.53700
4.97294	0.00000	4712.53700
4.97673	0.00000	4712.53700
4.98056	0.00000	4712.53700
4.98440	0.00000	4712.53700
4.98823	0.00000	4712.53700
4.99206	0.00000	4704.19100
4.99588	0.00000	4704.19100
4.99971	0.00000	4704.19100
5.00409	0.00000	4704.19100
5.00796	0.00000	4704.19100
5.01181	0.00000	4707.08900
5.01566	0.00000	4707.08900
5.01955	0.00000	4707.08900
5.02340	0.00000	4707.08900
5.02724	0.00000	4707.08900
5.03108	0.00000	4707.08900
5.03497	0.00000	4969.27700
5.03883	0.00000	4969.27700
5.04267	0.00000	4969.27700
5.04650	0.00000	4969.27700
5.05034	0.00000	4969.27700
5.05420	0.00000	4969.27700
5.05803	0.00000	4969.27700
5.06186	0.00000	5344.22600
5.06570	0.00000	5344.22600
5.06953	0.00000	5344.22600
5.07337	0.00000	5344.22600
5.07720	0.00000	5344.22600
5.08105	0.00000	5344.22600
5.08488	0.00000	5344.22600
5.08872	0.00000	5611.79600
5.09258	0.00000	5611.79600
5.09643	0.00000	5611.79600
5.10028	0.00000	5611.79600
5.10413	0.00000	5611.79600
5.10796	0.00000	5611.79600
5.11181	0.00000	5611.79600
5.11566	0.00000	5611.79600
5.11951	0.00000	5797.15100
5.12335	0.00000	5797.15100
5.12720	0.00000	5797.15100
5.13103	0.00000	5797.15100
5.13487	0.00000	5797.15100
5.13870	0.00000	5797.15100
5.14254	0.00000	5797.15100
5.14639	0.00000	5797.15100
5.15023	0.00000	5912.07200
5.15406	0.00000	5912.07200
5.15790	0.00000	5912.07200
5.16174	0.00000	5912.07200
5.16559	0.00000	5912.07200
5.16943	0.00000	5912.07200
5.17327	0.00000	5912.07200
5.17711	0.00000	5912.07200
5.18094	0.00000	5968.94600
5.18474	0.00000	5968.94600
5.18858	0.00000	5968.94600
5.19241	0.00000	5968.94600
5.19625	0.00000	5968.94600
5.20009	0.00000	5968.94600
5.20393	0.00000	5968.94600
5.20777	0.00000	5968.94600
5.21161	0.00000	6001.55200
5.21546	0.00000	6001.55200
5.21930	0.00000	6001.55200
5.22314	0.00000	6001.55200
5.22697	0.00000	6001.55200
5.23081	0.00000	6001.55200
5.23466	0.00000	6001.55200
5.23850	0.00000	6001.55200
5.24234	0.00000	6032.02100
5.24620	0.00000	6032.02100
5.25003	0.00000	6032.02100
5.25386	0.00000	6032.02100
5.25770	0.00000	6032.02100
5.26153	0.00000	6032.02100
5.26538	0.00000	6032.02100
5.26921	0.00000	6032.02100
5.27305	0.00000	6032.02100
5.27689	0.00000	6037.42400
5.28073	0.00000	6037.42400
5.28457	0.00000	6037.42400
5.28841	0.00000	6037.42400
5.29224	0.00000	6037.42400
5.29610	0.00000	6037.42400
5.29993	0.00000	6037.42400
5.30378	0.00000	6037.42400
5.30761	0.00000	6048.69600
5.31146	0.00000	6048.69600
5.31529	0.00000	6048.69600
5.31914	0.00000	6048.69600
5.32297	0.00000	6048.69600
5.32681	0.00000	6048.69600
5.33065	0.00000	6048.69600
5.33449	0.00000	6048.69600
5.33833	0.00000	6049.74400
5.34218	0.00000	6049.74400
5.34602	0.00000	6049.74400
5.34986	0.00000	6049.74400
5.35370	0.00000	6049.74400
5.35753	0.00000	6049.74400
5.36136	0.00000	6049.74400
5.36520	0.00000	6049.74400
5.36904	0.00000	6049.74400
5.37288	0.00000	6049.74400
5.37672	0.00000	6049.74400
5.38059	0.00000	6049.74400
5.38444	0.00000	6049.74400
5.38828	0.00000	6049.74400
5.39212	0.00000	6049.74400
5.39595	0.00000	6049.74400
5.39978	0.00000	6049.74400
5.40363	0.00000	6056.51700
5.40747	0.00000	6056.51700
5.41131	0.00000	6056.51700
5.41514	0.00000	6056.51700
5.41898	0.00000	6056.51700
5.42282	0.00000	6056.51700
5.42667	0.00000	6056.51700
5.43050	0.00000	6056.51700
5.43434	0.00000	6061.22400
5.43818	0.00000	6061.22400
5.44203	0.00000	6061.22400
5.44586	0.00000	6061.22400
5.44970	0.00000	6061.22400
5.45353	0.00000	6061.22400
5.45739	0.00000	6061.22400
5.46123	0.00000	6061.22400
5.46507	0.00000	6065.05100
5.46890	0.00000	6065.05100
5.47273	0.00000	6065.05100
5.47658	0.00000	6065.05100
5.48042	0.00000	6065.05100
5.48426	0.00000	6065.05100
5.48809	0.00000	6065.05100
5.49192	0.00000	6065.05100
5.49579	0.00000	6065.05100
5.49963	0.00000	6060.47100
5.50347	0.00000	6060.47100
5.50730	0.00000	6060.47100
5.51116	0.00000	6060.47100
5.51500	0.00000	6060.47100
5.51883	0.00000	6060.47100
5.52266	0.00000	6060.47100
5.52650	0.00000	6060.47100
5.53035	0.00000	6061.22400
5.53420	0.00000	6061.22400
5.53804	0.00000	6061.22400
5.54188	0.00000	6061.22400
5.54573	0.00000	6061.22400
5.54958	0.00000	6061.22400
5.55342	0.00000	6061.22400
5.55725	0.00000	6061.22400
5.56109	0.00000	6048.88000
5.56493	0.00000	6048.88000
5.56874	0.00000	6048.88000
5.57260	0.00000	6048.88000
5.57642	0.00000	6048.88000
5.58025	0.00000	6048.88000
5.58409	0.00000	6048.88000
5.58794	0.00000	6048.88000
5.59178	0.00000	6048.88000
5.59560	0.00000	6046.11300
5.59943	0.00000	6046.11300
5.60327	0.00000	6046.11300
5.60710	0.00000	6046.11300
5.61093	0.00000	6046.11300
5.61477	0.00000	6046.11300
5.61861	0.00000	6046.11300
5.62246	0.00000	6046.11300
5.62630	0.00000	6057.39800
5.63013	0.00000	6057.39800
5.63396	0.00000	6057.39800
5.63779	0.00000	6057.39800
5.64163	0.00000	6057.39800
5.64547	0.00000	6057.39800
5.64931	0.00000	6057.39800
5.65313	0.00000	6057.39800
5.65697	0.00000	6055.48500
5.66082	0.00000	6055.48500
5.66466	0.00000	6055.48500
5.66850	0.00000	6055.48500
5.67232	0.00000	6055.48500
5.67617	0.00000	6055.48500
5.68001	0.00000	6055.48500
5.68385	0.00000	6055.48500
5.68768	0.00000	6062.11600
5.69152	0.00000	6062.11600
5.69537	0.00000	6062.11600
5.69921	0.00000	6062.11600
5.70304	0.00000	6062.11600
5.70687	0.00000	6062.11600
5.71070	0.00000	6062.11600
5.71455	0.00000	6062.11600
5.71838	0.00000	6062.11600
5.72221	0.00000	6056.51700
5.72605	0.00000	6056.51700
5.72989	0.00000	6056.51700
5.73373	0.00000	6056.51700
5.73757	0.00000	6056.51700
5.74141	0.00000	6056.51700
5.74525	0.00000	6056.51700
5.74909	0.00000	6056.51700
5.75293	0.00000	6053.57100
5.75674	0.00000	6053.57100
5.76057	0.00000	6053.57100
5.76440	0.00000	6053.57100
5.76823	0.00000	6053.57100
5.77208	0.00000	6053.57100
5.77592	0.00000	6053.57100
5.77975	0.00000	6053.57100
5.78358	0.00000	6043.15200
5.78744	0.00000	6043.15200
5.79128	0.00000	6043.15200
5.79511	0.00000	6043.15200
5.79894	0.00000	6043.15200
5.80277	0.00000	6043.15200
5.80661	0.00000	6043.15200
5.81045	0.00000	6043.15200
5.81429	0.00000	6043.15200
5.81813	0.00000	6050.96300
5.82196	0.00000	6050.96300
5.82580	0.00000	6050.96300
5.82965	0.00000	6050.96300
5.83348	0.00000	6050.96300
5.83732	0.00000	6050.96300
5.84114	0.00000	6050.96300
5.84500	0.00000	6050.96300
5.84883	0.00000	6049.74400
5.85268	0.00000	6049.74400
5.85652	0.00000	6049.74400
5.86036	0.00000	6049.74400
5.86420	0.00000	6049.74400
5.86804	0.00000	6049.74400
5.87187	0.00000	6049.74400
5.87572	0.00000	6049.74400
5.87955	0.00000	6057.39800
5.88340	0.00000	6057.39800
5.88724	0.00000	6057.39800
5.89108	0.00000	6057.39800
5.89491	0.00000	6057.39800
5.89876	0.00000	6057.39800
5.90260	0.00000	6057.39800
5.90644	0.00000	6057.39800
5.91027	0.00000	6046.97000
5.91410	0.00000	6046.97000
5.91794	0.00000	6046.97000
5.92180	0.00000	6046.97000
5.92563	0.00000	6046.97000
5.92948	0.00000	6046.97000
5.93331	0.00000	6046.97000
5.93717	0.00000	6046.97000
5.94101	0.00000	6046.97000
5.94485	0.00000	6048.88000
5.94868	0.00000	6048.88000
5.95253	0.00000	6048.88000
5.95637	0.00000	6048.88000
5.96021	0.00000	6048.88000
5.96404	0.00000	6048.88000
5.96788	0.00000	6048.88000
5.97173	0.00000	6048.88000
5.97557	0.00000	6047.83100
5.97941	0.00000	6047.83100
5.98325	0.00000	6047.83100
5.98708	0.00000	6047.83100
5.99093	0.00000	6047.83100
5.99477	0.00000	6047.83100
5.99861	0.00000	6047.83100
6.00244	0.00000	6047.83100
6.00629	0.00000	6058.28200
6.01013	0.00000	6058.28200
6.01397	0.00000	6058.28200
6.01781	0.00000	6058.28200
6.02165	0.00000	6058.28200
6.02550	0.00000	6058.28200
6.02934	0.00000	6058.28200
6.03317	0.00000	6058.28200
6.03701	0.00000	6058.28200
6.04085	0.00000	6055.64000
6.04474	0.00000	6055.64000
6.04861	0.00000	6055.64000
6.05245	0.00000	6055.64000
6.05628	0.00000	6055.64000
6.06012	0.00000	6055.64000
6.06397	0.00000	6055.64000
6.06781	0.00000	6055.64000
6.07165	0.00000	6051.65800
6.07550	0.00000	6051.65800
6.07934	0.00000	6051.65800
6.08319	0.00000	6051.65800
6.08703	0.00000	6051.65800
6.09087	0.00000	6051.65800
6.09470	0.00000	6051.65800
6.09855	0.00000	6051.65800
6.10239	0.00000	6053.57100
6.10623	0.00000	6053.57100
6.11005	0.00000	6053.57100
6.11389	0.00000	6053.57100
6.11773	0.00000	6053.57100
6.12158	0.00000	6053.57100
6.12542	0.00000	6053.57100
6.12925	0.00000	6053.57100
6.13308	0.00000	6049.74400
6.13690	0.00000	6049.74400
6.14074	0.00000	6049.74400
6.14457	0.00000	6049.74400
6.14840	0.00000	6049.74400
6.15223	0.00000	6049.74400
6.15606	0.00000	6049.74400
6.15990	0.00000	6049.74400
6.16374	0.00000	6049.74400
6.16757	0.00000	6056.51700
6.17141	0.00000	6056.51700
6.17526	0.00000	6056.51700
6.17910	0.00000	6056.51700
6.18294	0.00000	6056.51700
6.18677	0.00000	6056.51700
6.19062	0.00000	6056.51700
6.19447	0.00000	6056.51700
6.19830	0.00000	6048.88000
6.20214	0.00000	6048.88000
6.20598	0.00000	6048.88000
6.20982	0.00000	6048.88000
6.21366	0.00000	6048.88000
6.21750	0.00000	6048.88000
6.22135	0.00000	6048.88000
6.22518	0.00000	6048.88000
6.22903	0.00000	6061.22400
6.23288	0.00000	6061.22400
6.23671	0.00000	6061.22400
6.24055	0.00000	6061.22400
6.24440	0.00000	6061.22400
6.24824	0.00000	6061.22400
6.25208	0.00000	6061.22400
6.25591	0.00000	6061.22400
6.25974	0.00000	6061.22400
6.26358	0.00000	6056.66800
6.26743	0.00000	6056.66800
6.27127	0.00000	6056.66800
6.27510	0.00000	6056.66800
6.27893	0.00000	6056.66800
6.28279	0.00000	6056.66800
6.28662	0.00000	6056.66800
6.29047	0.00000	6056.66800
6.29430	0.00000	6057.39800
6.29815	0.00000	6057.39800
6.30199	0.00000	6057.39800
6.30583	0.00000	6057.39800
6.30966	0.00000	6057.39800
6.31352	0.00000	6057.39800
6.31736	0.00000	6057.39800
6.32120	0.00000	6057.39800
6.32503	0.00000	6065.95100
6.32887	0.00000	6065.95100
6.33271	0.00000	6065.95100
6.33656	0.00000	6065.95100
6.34040	0.00000	6065.95100
6.34423	0.00000	6065.95100
6.34807	0.00000	6065.95100
6.35191	0.00000	6065.95100
6.35576	0.00000	6065.95100
6.35958	0.00000	6049.92400
6.36341	0.00000	6049.92400
6.36726	0.00000	6049.92400
6.37110	0.00000	6049.92400
6.37495	0.00000	6049.92400
6.37879	0.00000	6049.92400
6.38263	0.00000	6049.92400
6.38647	0.00000	6049.92400
6.39032	0.00000	6049.74400
6.39416	0.00000	6049.74400
6.39799	0.00000	6049.74400
6.40183	0.00000	6049.74400
6.40568	0.00000	6049.74400
6.40951	0.00000	6049.74400
6.41336	0.00000	6049.74400
6.41719	0.00000	6049.74400
6.42104	0.00000	6053.57100
6.42488	0.00000	6053.57100
6.42871	0.00000	6053.57100
6.43256	0.00000	6053.57100
6.43640	0.00000	6053.57100
6.44023	0.00000	6053.57100
6.44409	0.00000	6053.57100
6.44793	0.00000	6053.57100
6.45176	0.00000	6053.57100
6.45561	0.00000	6053.57100
6.45945	0.00000	6053.57100
6.46329	0.00000	6053.57100
6.46713	0.00000	6053.57100
6.47096	0.00000	6053.57100
6.47480	0.00000	6053.57100
6.47863	0.00000	6053.57100
6.48249	0.00000	6053.57100
6.48632	0.00000	6051.82900
6.49016	0.00000	6051.82900
6.49399	0.00000	6051.82900
6.49782	0.00000	6051.82900
6.50167	0.00000	6051.82900
6.50552	0.00000	6051.82900
6.50936	0.00000	6051.82900
6.51318	0.00000	6051.82900
6.51701	0.00000	6055.48500
6.52088	0.00000	6055.48500
6.52472	0.00000	6055.48500
6.52856	0.00000	6055.48500
6.53241	0.00000	6055.48500
6.53625	0.00000	6055.48500
6.54008	0.00000	6055.48500
6.54393	0.00000	6055.48500
6.54775	0.00000	6057.39800
6.55164	0.00000	6057.39800
6.55548	0.00000	6057.39800
6.55932	0.00000	6057.39800
6.56315	0.00000	6057.39800
6.56698	0.00000	6057.39800
6.57082	0.00000	6057.39800
6.57466	0.00000	6057.39800
6.57850	0.00000	6057.39800
6.58232	0.00000	6051.82900
6.58616	0.00000	6051.82900
6.59001	0.00000	6051.82900
6.59386	0.00000	6051.82900
6.59769	0.00000	6051.82900
6.60151	0.00000	6051.82900
6.60535	0.00000	6051.82900
6.60919	0.00000	6051.82900
6.61305	0.00000	6045.91800
6.61688	0.00000	6045.91800
6.62071	0.00000	6045.91800
6.62456	0.00000	6045.91800
6.62840	0.00000	6045.91800
6.63225	0.00000	6045.91800
6.63609	0.00000	6045.91800
6.63992	0.00000	6045.91800
6.64377	0.00000	6060.19900
6.64761	0.00000	6060.19900
6.65146	0.00000	6060.19900
6.65528	0.00000	6060.19900
6.65913	0.00000	6060.19900
6.66297	0.00000	6060.19900
6.66682	0.00000	6060.19900
6.67065	0.00000	6060.19900
6.67450	0.00000	6049.74400
6.67835	0.00000	6049.74400
6.68219	0.00000	6049.74400
6.68603	0.00000	6049.74400
6.68986	0.00000	6049.74400
6.69370	0.00000	6049.74400
6.69754	0.00000	6049.74400
6.70138	0.00000	6049.74400
6.70522	0.00000	6049.74400
6.70905	0.00000	6048.01800
6.71290	0.00000	6048.01800
6.71674	0.00000	6048.01800
6.72059	0.00000	6048.01800
6.72443	0.00000	6048.01800
6.72827	0.00000	6048.01800
6.73210	0.00000	6048.01800
6.73594	0.00000	6048.01800
6.73978	0.00000	6042.09200
6.74363	0.00000	6042.09200
6.74746	0.00000	6042.09200
6.75129	0.00000	6042.09200
6.75513	0.00000	6042.09200
6.75896	0.00000	6042.09200
6.76279	0.00000	6042.09200
6.76665	0.00000	6042.09200
6.77049	0.00000	6047.83100
6.77434	0.00000	6047.83100
6.77819	0.00000	6047.83100
6.78202	0.00000	6047.83100
6.78585	0.00000	6047.83100
6.78967	0.00000	6047.83100
6.79352	0.00000	6047.83100
6.79738	0.00000	6047.83100
6.80121	0.00000	6047.83100
6.80503	0.00000	6058.42700
6.80887	0.00000	6058.42700
6.81274	0.00000	6058.42700
6.81657	0.00000	6058.42700
6.82040	0.00000	6058.42700
6.82424	0.00000	6058.42700
6.82810	0.00000	6058.42700
6.83194	0.00000	6058.42700
6.83579	0.00000	6062.11600
6.83963	0.00000	6062.11600
6.84347	0.00000	6062.11600
6.84731	0.00000	6062.11600
6.85115	0.00000	6062.11600
6.85498	0.00000	6062.11600
6.85883	0.00000	6062.11600
6.86266	0.00000	6062.11600
6.86651	0.00000	6047.83100
6.87035	0.00000	6047.83100
6.87419	0.00000	6047.83100
6.87802	0.00000	6047.83100
6.88187	0.00000	6047.83100
6.88570	0.00000	6047.83100
6.88955	0.00000	6047.83100
6.89338	0.00000	6047.83100
6.89721	0.00000	6045.91800
6.90105	0.00000	6045.91800
6.90491	0.00000	6045.91800
6.90874	0.00000	6045.91800
6.91257	0.00000	6045.91800
6.91640	0.00000	6045.91800
6.92026	0.00000	6045.91800
6.92409	0.00000	6045.91800
6.92792	0.00000	6045.91800
6.93176	0.00000	6048.01800
6.93561	0.00000	6048.01800
6.93945	0.00000	6048.01800
6.94329	0.00000	6048.01800
6.94713	0.00000	6048.01800
6.95098	0.00000	6048.01800
6.95482	0.00000	6048.01800
6.95867	0.00000	6048.01800
6.96251	0.00000	6051.65800
6.96636	0.00000	6051.65800
6.97019	0.00000	6051.65800
6.97401	0.00000	6051.65800
6.97785	0.00000	6051.65800
6.98172	0.00000	6051.65800
6.98555	0.00000	6051.65800
6.98939	0.00000	6051.65800
6.99323	0.00000	6051.65800
6.99708	0.00000	6051.65800
7.00092	0.00000	6051.65800
7.00474	0.00000	6051.65800
7.00857	0.00000	6051.65800
7.01242	0.00000	6051.65800
7.01626	0.00000	6051.65800
7.02012	0.00000	6051.65800
7.02395	0.00000	6051.65800
7.02779	0.00000	6056.51700
7.03163	0.00000	6056.51700
7.03546	0.00000	6056.51700
7.03929	0.00000	6056.51700
7.04316	0.00000	6056.51700
7.04701	0.00000	6056.51700
7.05085	0.00000	6056.51700
7.05468	0.00000	6056.51700
7.05852	0.00000	6051.65800
7.06235	0.00000	6051.65800
7.06620	0.00000	6051.65800
7.07003	0.00000	6051.65800
7.07388	0.00000	6051.65800
7.07770	0.00000	6051.65800
7.08152	0.00000	6051.65800
7.08535	0.00000	6051.65800
7.08918	0.00000	6049.74400
7.09303	0.00000	6049.74400
7.09686	0.00000	6049.74400
7.10068	0.00000	6049.74400
7.10451	0.00000	6049.74400
7.10834	0.00000	6049.74400
7.11217	0.00000	6049.74400
7.11598	0.00000	6049.74400
7.11981	0.00000	6053.57100
7.12362	0.00000	6053.57100
7.12745	0.00000	6053.57100
7.13130	0.00000	6053.57100
7.13513	0.00000	6053.57100
7.13898	0.00000	6053.57100
7.14281	0.00000	6053.57100
7.14665	0.00000	6053.57100
7.15048	0.00000	6053.57100
7.15432	0.00000	6052.69800
7.15815	0.00000	6052.69800
7.16198	0.00000	6052.69800
7.16583	0.00000	6052.69800
7.16967	0.00000	6052.69800
7.17351	0.00000	6052.69800
7.17734	0.00000	6052.69800
7.18117	0.00000	6052.69800
7.18500	0.00000	6057.39800
7.18884	0.00000	6057.39800
7.19268	0.00000	6057.39800
7.19652	0.00000	6057.39800
7.20036	0.00000	6057.39800
7.20420	0.00000	6057.39800
7.20803	0.00000	6057.39800
7.21187	0.00000	6057.39800
7.21570	0.00000	6055.48500
7.21955	0.00000	6055.48500
7.22340	0.00000	6055.48500
7.22725	0.00000	6055.48500
7.23108	0.00000	6055.48500
7.23492	0.00000	6055.48500
7.23877	0.00000	6055.48500
7.24261	0.00000	6055.48500
7.24645	0.00000	6055.48500
7.25028	0.00000	6049.06100
7.25412	0.00000	6049.06100
7.25796	0.00000	6049.06100
7.26180	0.00000	6049.06100
7.26563	0.00000	6049.06100
7.26948	0.00000	6049.06100
7.27333	0.00000	6049.06100
7.27717	0.00000	6049.06100
7.28100	0.00000	6053.57100
7.28484	0.00000	6053.57100
7.28867	0.00000	6053.57100
7.29250	0.00000	6053.57100
7.29634	0.00000	6053.57100
7.30020	0.00000	6053.57100
7.30403	0.00000	6053.57100
7.30786	0.00000	6053.57100
7.31170	0.00000	6055.48500
7.31556	0.00000	6055.48500
7.31940	0.00000	6055.48500
7.32324	0.00000	6055.48500
7.32708	0.00000	6055.48500
7.33093	0.00000	6055.48500
7.33477	0.00000	6055.48500
7.33861	0.00000	6055.48500
7.34244	0.00000	6059.31100
7.34627	0.00000	6059.31100
7.35011	0.00000	6059.31100
7.35394	0.00000	6059.31100
7.35778	0.00000	6059.31100
7.36164	0.00000	6059.31100
7.36548	0.00000	6059.31100
7.36933	0.00000	6059.31100
7.37317	0.00000	6059.31100
7.37701	0.00000	6063.13800
7.38084	0.00000	6063.13800
7.38469	0.00000	6063.13800
7.38852	0.00000	6063.13800
7.39236	0.00000	6063.13800
7.39619	0.00000	6063.13800
7.40005	0.00000	6063.13800
7.40390	0.00000	6063.13800
7.40773	0.00000	6050.78900
7.41157	0.00000	6050.78900
7.41541	0.00000	6050.78900
7.41925	0.00000	6050.78900
7.42310	0.00000	6050.78900
7.42694	0.00000	6050.78900
7.43078	0.00000	6050.78900
7.43461	0.00000	6050.78900
7.43846	0.00000	6048.88000
7.44234	0.00000	6048.88000
7.44618	0.00000	6048.88000
7.45000	0.00000	6048.88000
7.45384	0.00000	6048.88000
7.45769	0.00000	6048.88000
7.46152	0.00000	6048.88000
7.46536	0.00000	6048.88000
7.46921	0.00000	6048.88000
7.47306	0.00000	6050.96300
7.47690	0.00000	6050.96300
7.48073	0.00000	6050.96300
7.48457	0.00000	6050.96300
7.48842	0.00000	6050.96300
7.49225	0.00000	6050.96300
7.49609	0.00000	6050.96300
7.49993	0.00000	6050.96300
7.50376	0.00000	6057.39800
7.50759	0.00000	6057.39800
7.51142	0.00000	6057.39800
7.51526	0.00000	6057.39800
7.51910	0.00000	6057.39800
7.52294	0.00000	6057.39800
7.52677	0.00000	6057.39800
7.53063	0.00000	6057.39800
7.53447	0.00000	6063.13800
7.53830	0.00000	6063.13800
7.54213	0.00000	6063.13800
7.54598	0.00000	6063.13800
7.54982	0.00000	6063.13800
7.55366	0.00000	6063.13800
7.55750	0.00000	6063.13800
7.56134	0.00000	6063.13800
7.56518	0.00000	6063.13800
7.56902	0.00000	6051.82900
7.57286	0.00000	6051.82900
7.57670	0.00000	6051.82900
7.58055	0.00000	6051.82900
7.58439	0.00000	6051.82900
7.58822	0.00000	6051.82900
7.59206	0.00000	6051.82900
7.59589	0.00000	6051.82900
7.59974	0.00000	6057.39800
7.60358	0.00000	6057.39800
7.60742	0.00000	6057.39800
7.61126	0.00000	6057.39800
7.61510	0.00000	6057.39800
7.61894	0.00000	6057.39800
7.62279	0.00000	6057.39800
7.62663	0.00000	6057.39800
7.63047	0.00000	6059.31100
7.63431	0.00000	6059.31100
7.63815	0.00000	6059.31100
7.64199	0.00000	6059.31100
7.64583	0.00000	6059.31100
7.64967	0.00000	6059.31100
7.65351	0.00000	6059.31100
7.65736	0.00000	6059.31100
7.66120	0.00000	6055.48500
7.66503	0.00000	6055.48500
7.66886	0.00000	6055.48500
7.67271	0.00000	6055.48500
7.67655	0.00000	6055.48500
7.68039	0.00000	6055.48500
7.68423	0.00000	6055.48500
7.68806	0.00000	6055.48500
7.69191	0.00000	6055.48500
7.69575	0.00000	6053.73400
7.69959	0.00000	6053.73400
7.70342	0.00000	6053.73400
7.70728	0.00000	6053.73400
7.71111	0.00000	6053.73400
7.71495	0.00000	6053.73400
7.71878	0.00000	6053.73400
7.72261	0.00000	6053.73400
7.72645	0.00000	6065.05100
7.73031	0.00000	6065.05100
7.73415	0.00000	6065.05100
7.73800	0.00000	6065.05100
7.74184	0.00000	6065.05100
7.74568	0.00000	6065.05100
7.74951	0.00000	6065.05100
7.75335	0.00000	6065.05100
7.75718	0.00000	6059.31100
7.76106	0.00000	6059.31100
7.76492	0.00000	6059.31100
7.76873	0.00000	6059.31100
7.77257	0.00000	6059.31100
7.77640	0.00000	6059.31100
7.78024	0.00000	6059.31100
7.78408	0.00000	6059.31100
7.78792	0.00000	6059.31100
7.79176	0.00000	6056.66800
7.79559	0.00000	6056.66800
7.79943	0.00000	6056.66800
7.80327	0.00000	6056.66800
7.80711	0.00000	6056.66800
7.81094	0.00000	6056.66800
7.81478	0.00000	6056.66800
7.81862	0.00000	6056.66800
7.82247	0.00000	6061.22400
7.82630	0.00000	6061.22400
7.83013	0.00000	6061.22400
7.83397	0.00000	6061.22400
7.83783	0.00000	6061.22400
7.84167	0.00000	6061.22400
7.84550	0.00000	6061.22400
7.84934	0.00000	6061.22400
7.85319	0.00000	6057.39800
7.85703	0.00000	6057.39800
7.86087	0.00000	6057.39800
7.86470	0.00000	6057.39800
7.86857	0.00000	6057.39800
7.87241	0.00000	6057.39800
7.87625	0.00000	6057.39800
7.88008	0.00000	6057.39800
7.88392	0.00000	6057.39800
7.88775	0.00000	6054.60800
7.89160	0.00000	6054.60800
7.89543	0.00000	6054.60800
7.89928	0.00000	6054.60800
7.90311	0.00000	6054.60800
7.90694	0.00000	6054.60800
7.91078	0.00000	6054.60800
7.91464	0.00000	6054.60800
7.91847	0.00000	6045.06100
7.92230	0.00000	6045.06100
7.92615	0.00000	6045.06100
7.93001	0.00000	6045.06100
7.93384	0.00000	6045.06100
7.93769	0.00000	6045.06100
7.94152	0.00000	6045.06100
7.94538	0.00000	6045.06100
7.94921	0.00000	6051.65800
7.95305	0.00000	6051.65800
7.95688	0.00000	6051.65800
7.96073	0.00000	6051.65800
7.96457	0.00000	6051.65800
7.96841	0.00000	6051.65800
7.97224	0.00000	6051.65800
7.97609	0.00000	6051.65800
7.97993	0.00000	6053.57100
7.98379	0.00000	6053.57100
7.98762	0.00000	6053.57100
7.99145	0.00000	6053.57100
7.99529	0.00000	6053.57100
7.99913	0.00000	6053.57100
8.00298	0.00000	6053.57100
8.00681	0.00000	6053.57100
8.01064	0.00000	6053.57100
8.01449	0.00000	6042.51000
8.01834	0.00000	6042.51000
8.02217	0.00000	6042.51000
8.02601	0.00000	6042.51000
8.02986	0.00000	6042.51000
8.03370	0.00000	6042.51000
8.03754	0.00000	6042.51000
8.04138	0.00000	6042.51000
8.04521	0.00000	6048.88000
8.04905	0.00000	6048.88000
8.05290	0.00000	6048.88000
8.05674	0.00000	6048.88000
8.06058	0.00000	6048.88000
8.06441	0.00000	6048.88000
8.06826	0.00000	6048.88000
8.07210	0.00000	6048.88000
8.07594	0.00000	6063.13800
8.07979	0.00000	6063.13800
8.08363	0.00000	6063.13800
8.08747	0.00000	6063.13800
8.09131	0.00000	6063.13800
8.09514	0.00000	6063.13800
8.09898	0.00000	6063.13800
8.10282	0.00000	6063.13800
8.10666	0.00000	6063.13800
8.11049	0.00000	6059.45100
8.11434	0.00000	6059.45100
8.11817	0.00000	6059.45100
8.12202	0.00000	6059.45100
8.12587	0.00000	6059.45100
8.12970	0.00000	6059.45100
8.13354	0.00000	6059.45100
8.13738	0.00000	6059.45100
8.14122	0.00000	6054.60800
8.14507	0.00000	6054.60800
8.14890	0.00000	6054.60800
8.15274	0.00000	6054.60800
8.15657	0.00000	6054.60800
8.16042	0.00000	6054.60800
8.16426	0.00000	6054.60800
8.16810	0.00000	6054.60800
8.17193	0.00000	6045.06100
8.17579	0.00000	6045.06100
8.17963	0.00000	6045.06100
8.18347	0.00000	6045.06100
8.18730	0.00000	6045.06100
8.19115	0.00000	6045.06100
8.19499	0.00000	6045.06100
8.19883	0.00000	6045.06100
8.20266	0.00000	6055.48500
8.20649	0.00000	6055.48500
8.21032	0.00000	6055.48500
8.21416	0.00000	6055.48500
8.21800	0.00000	6055.48500
8.22185	0.00000	6055.48500
8.22569	0.00000	6055.48500
8.22952	0.00000	6055.48500
8.23337	0.00000	6055.48500
8.23723	0.00000	6060.33600
8.24106	0.00000	6060.33600
8.24491	0.00000	6060.33600
8.24874	0.00000	6060.33600
8.25260	0.00000	6060.33600
8.25643	0.00000	6060.33600
8.26027	0.00000	6060.33600
8.26411	0.00000	6060.33600
8.26795	0.00000	6063.13800
8.27178	0.00000	6063.13800
8.27564	0.00000	6063.13800
8.27947	0.00000	6063.13800
8.28332	0.00000	6063.13800
8.28716	0.00000	6063.13800
8.29100	0.00000	6063.13800
8.29483	0.00000	6063.13800
8.29867	0.00000	6048.88000
8.30255	0.00000	6048.88000
8.30639	0.00000	6048.88000
8.31022	0.00000	6048.88000
8.31405	0.00000	6048.88000
8.31788	0.00000	6048.88000
8.32172	0.00000	6048.88000
8.32555	0.00000	6048.88000
8.32939	0.00000	6048.88000
8.33322	0.00000	6046.30500
8.33708	0.00000	6046.30500
8.34092	0.00000	6046.30500
8.34474	0.00000	6046.30500
8.34857	0.00000	6046.30500
8.35240	0.00000	6046.30500
8.35623	0.00000	6046.30500
8.36006	0.00000	6046.30500
8.36390	0.00000	6048.88000
8.36774	0.00000	6048.88000
8.37157	0.00000	6048.88000
8.37541	0.00000	6048.88000
8.37926	0.00000	6048.88000
8.38310	0.00000	6048.88000
8.38693	0.00000	6048.88000
8.39076	0.00000	6048.88000
8.39460	0.00000	6052.69800
8.39845	0.00000	6052.69800
8.40229	0.00000	6052.69800
8.40612	0.00000	6052.69800
8.40999	0.00000	6052.69800
8.41383	0.00000	6052.69800
8.41767	0.00000	6052.69800
8.42150	0.00000	6052.69800
8.42534	0.00000	6052.69800
8.42917	0.00000	6065.16700
8.43302	0.00000	6065.16700
8.43685	0.00000	6065.16700
8.44070	0.00000	6065.16700
8.44454	0.00000	6065.16700
8.44838	0.00000	6065.16700
8.45223	0.00000	6065.16700
8.45606	0.00000	6065.16700
8.45990	0.00000	6046.97000
8.46374	0.00000	6046.97000
8.46757	0.00000	6046.97000
8.47141	0.00000	6046.97000
8.47525	0.00000	6046.97000
8.47908	0.00000	6046.97000
8.48291	0.00000	6046.97000
8.48675	0.00000	6046.97000
8.49059	0.00000	6050.78900
8.49442	0.00000	6050.78900
8.49826	0.00000	6050.78900
8.50209	0.00000	6050.78900
8.50593	0.00000	6050.78900
8.50976	0.00000	6050.78900
8.51361	0.00000	6050.78900
8.51744	0.00000	6050.78900
8.52128	0.00000	6066.96400
8.52512	0.00000	6066.96400
8.52895	0.00000	6066.96400
8.53279	0.00000	6066.96400
8.53662	0.00000	6066.96400
8.54046	0.00000	6066.96400
8.54430	0.00000	6066.96400
8.54814	0.00000	6066.96400
8.55197	0.00000	6066.96400
8.55580	0.00000	6059.45100
8.55965	0.00000	6059.45100
8.56350	0.00000	6059.45100
8.56733	0.00000	6059.45100
8.57117	0.00000	6059.45100
8.57499	0.00000	6059.45100
8.57884	0.00000	6059.45100
8.58268	0.00000	6059.45100
8.58653	0.00000	6056.51700
8.59036	0.00000	6056.51700
8.59421	0.00000	6056.51700
8.59805	0.00000	6056.51700
8.60189	0.00000	6056.51700
8.60572	0.00000	6056.51700
8.60956	0.00000	6056.51700
8.61340	0.00000	6056.51700
8.61725	0.00000	6058.42700
8.62115	0.00000	6058.42700
8.62500	0.00000	6058.42700
8.62884	0.00000	6058.42700
8.63268	0.00000	6058.42700
8.63651	0.00000	6058.42700
8.64035	0.00000	6058.42700
8.64418	0.00000	6058.42700
8.64803	0.00000	6058.42700
8.65186	0.00000	6055.79400
8.65570	0.00000	6055.79400
8.65953	0.00000	6055.79400
8.66337	0.00000	6055.79400
8.66722	0.00000	6055.79400
8.67106	0.00000	6055.79400
8.67489	0.00000	6055.79400
8.67872	0.00000	6055.79400
8.68256	0.00000	6056.51700
8.68639	0.00000	6056.51700
8.69023	0.00000	6056.51700
8.69406	0.00000	6056.51700
8.69790	0.00000	6056.51700
8.70175	0.00000	6056.51700
8.70558	0.00000	6056.51700
8.70942	0.00000	6056.51700
8.71325	0.00000	6058.42700
8.71712	0.00000	6058.42700
8.72096	0.00000	6058.42700
8.72479	0.00000	6058.42700
8.72863	0.00000	6058.42700
8.73247	0.00000	6058.42700
8.73631	0.00000	6058.42700
8.74014	0.00000	6058.42700
8.74398	0.00000	6058.42700
8.74781	0.00000	6057.69200
8.75165	0.00000	6057.69200
8.75550	0.00000	6057.69200
8.75933	0.00000	6057.69200
8.76317	0.00000	6057.69200
8.76700	0.00000	6057.69200
8.77084	0.00000	6057.69200
8.77468	0.00000	6057.69200
8.77852	0.00000	6060.33600
8.78235	0.00000	6060.33600
8.78618	0.00000	6060.33600
8.79002	0.00000	6060.33600
8.79386	0.00000	6060.33600
8.79769	0.00000	6060.33600
8.80153	0.00000	6060.33600
8.80537	0.00000	6060.33600
8.80921	0.00000	6058.42700
8.81304	0.00000	6058.42700
8.81687	0.00000	6058.42700
8.82070	0.00000	6058.42700
8.82455	0.00000	6058.42700
8.82840	0.00000	6058.42700
8.83223	0.00000	6058.42700
8.83606	0.00000	6058.42700
8.83990	0.00000	6058.42700
8.84373	0.00000	6060.47100
8.84758	0.00000	6060.47100
8.85141	0.00000	6060.47100
8.85526	0.00000	6060.47100
8.85910	0.00000	6060.47100
8.86294	0.00000	6060.47100
8.86678	0.00000	6060.47100
8.87062	0.00000	6060.47100
8.87444	0.00000	6058.42700
8.87830	0.00000	6058.42700
8.88213	0.00000	6058.42700
8.88598	0.00000	6058.42700
8.88981	0.00000	6058.42700
8.89365	0.00000	6058.42700
8.89749	0.00000	6058.42700
8.90134	0.00000	6058.42700
8.90517	0.00000	6060.33600
8.90901	0.00000	6060.33600
8.91286	0.00000	6060.33600
8.91670	0.00000	6060.33600
8.92055	0.00000	6060.33600
8.92438	0.00000	6060.33600
8.92821	0.00000	6060.33600
8.93207	0.00000	6060.33600
8.93591	0.00000	6056.51700
8.93974	0.00000	6056.51700
8.94357	0.00000	6056.51700
8.94742	0.00000	6056.51700
8.95125	0.00000	6056.51700
8.95510	0.00000	6056.51700
8.95894	0.00000	6056.51700
8.96279	0.00000	6056.51700
8.96662	0.00000	6056.51700
8.97046	0.00000	6059.45100
8.97429	0.00000	6059.45100
8.97813	0.00000	6059.45100
8.98196	0.00000	6059.45100
8.98582	0.00000	6059.45100
8.98966	0.00000	6059.45100
8.99350	0.00000	6059.45100
8.99734	0.00000	6059.45100
9.00118	0.00000	6053.73400
9.00502	0.00000	6053.73400
9.00887	0.00000	6053.73400
9.01270	0.00000	6053.73400
9.01654	0.00000	6053.73400
9.02039	0.00000	6053.73400
9.02423	0.00000	6053.73400
9.02807	0.00000	6053.73400
9.03190	0.00000	6062.24500
9.03577	0.00000	6062.24500
9.03960	0.00000	6062.24500
9.04344	0.00000	6062.24500
9.04728	0.00000	6062.24500
9.05111	0.00000	6062.24500
9.05496	0.00000	6062.24500
9.05879	0.00000	6062.24500
9.06263	0.00000	6062.24500
9.06647	0.00000	6053.89700
9.07031	0.00000	6053.89700
9.07415	0.00000	6053.89700
9.07800	0.00000	6053.89700
9.08183	0.00000	6053.89700
9.08567	0.00000	6053.89700
9.08951	0.00000	6053.89700
9.09336	0.00000	6053.89700
9.09720	0.00000	6060.33600
9.10103	0.00000	6060.33600
9.10487	0.00000	6060.33600
9.10872	0.00000	6060.33600
9.11257	0.00000	6060.33600
9.11640	0.00000	6060.33600
9.12023	0.00000	6060.33600
9.12408	0.00000	6060.33600
9.12791	0.00000	6056.51700
9.13177	0.00000	6056.51700
9.13560	0.00000	6056.51700
9.13945	0.00000	6056.51700
9.14329	0.00000	6056.51700
9.14713	0.00000	6056.51700
9.15096	0.00000	6056.51700
9.15480	0.00000	6056.51700
9.15863	0.00000	6056.51700
9.16248	0.00000	6055.79400
9.16631	0.00000	6055.79400
9.17016	0.00000	6055.79400
9.17399	0.00000	6055.79400
9.17784	0.00000	6055.79400
9.18168	0.00000	6055.79400
9.18552	0.00000	6055.79400
9.18935	0.00000	6055.79400
9.19320	0.00000	6060.33600
9.19704	0.00000	6060.33600
9.20088	0.00000	6060.33600
9.20472	0.00000	6060.33600
9.20856	0.00000	6060.33600
9.21240	0.00000	6060.33600
9.21625	0.00000	6060.33600
9.22009	0.00000	6060.33600
9.22393	0.00000	6060.33600
9.22777	0.00000	6060.33600
9.23161	0.00000	6060.33600
9.23545	0.00000	6060.33600
9.23928	0.00000	6060.33600
9.24311	0.00000	6060.33600
9.24696	0.00000	6060.33600
9.25081	0.00000	6060.33600
9.25465	0.00000	6060.33600
9.25848	0.00000	6058.57000
9.26232	0.00000	6058.57000
9.26616	0.00000	6058.57000
9.27001	0.00000	6058.57000
9.27384	0.00000	6058.57000
9.27768	0.00000	6058.57000
9.28152	0.00000	6058.57000
9.28538	0.00000	6058.57000
9.28923	0.00000	6064.15500
9.29308	0.00000	6064.15500
9.29693	0.00000	6064.15500
9.30074	0.00000	6064.15500
9.30458	0.00000	6064.15500
9.30841	0.00000	6064.15500
9.31225	0.00000	6064.15500
9.31608	0.00000	6064.15500
9.31992	0.00000	6065.05100
9.32377	0.00000	6065.05100
9.32761	0.00000	6065.05100
9.33145	0.00000	6065.05100
9.33529	0.00000	6065.05100
9.33914	0.00000	6065.05100
9.34297	0.00000	6065.05100
9.34681	0.00000	6065.05100
9.35064	0.00000	6056.51700
9.35447	0.00000	6056.51700
9.35831	0.00000	6056.51700
9.36215	0.00000	6056.51700
9.36598	0.00000	6056.51700
9.36983	0.00000	6056.51700
9.37367	0.00000	6056.51700
9.37751	0.00000	6056.51700
9.38135	0.00000	6056.51700
9.38520	0.00000	6059.45100
9.38904	0.00000	6059.45100
9.39289	0.00000	6059.45100
9.39673	0.00000	6059.45100
9.40057	0.00000	6059.45100
9.40440	0.00000	6059.45100
9.40826	0.00000	6059.45100
9.41210	0.00000	6059.45100
9.41594	0.00000	6062.24500
9.41977	0.00000	6062.24500
9.42361	0.00000	6062.24500
9.42745	0.00000	6062.24500
9.43130	0.00000	6062.24500
9.43513	0.00000	6062.24500
9.43897	0.00000	6062.24500
9.44281	0.00000	6062.24500
9.44666	0.00000	6067.97300
9.45052	0.00000	6067.97300
9.45435	0.00000	6067.97300
9.45819	0.00000	6067.97300
9.46204	0.00000	6067.97300
9.46588	0.00000	6067.97300
9.46971	0.00000	6067.97300
9.47355	0.00000	6067.97300
9.47739	0.00000	6067.97300
9.48126	0.00000	6055.79400
9.48509	0.00000	6055.79400
9.48892	0.00000	6055.79400
9.49274	0.00000	6055.79400
9.49658	0.00000	6055.79400
9.50042	0.00000	6055.79400
9.50425	0.00000	6055.79400
9.50810	0.00000	6055.79400
9.51193	0.00000	6056.51700
9.51578	0.00000	6056.51700
9.51962	0.00000	6056.51700
9.52346	0.00000	6056.51700
9.52729	0.00000	6056.51700
9.53114	0.00000	6056.51700
9.53498	0.00000	6056.51700
9.53882	0.00000	6056.51700
9.54266	0.00000	6060.33600
9.54651	0.00000	6060.33600
9.55034	0.00000	6060.33600
9.55419	0.00000	6060.33600
9.55802	0.00000	6060.33600
9.56187	0.00000	6060.33600
9.56571	0.00000	6060.33600
9.56956	0.00000	6060.33600
9.57339	0.00000	6060.33600
9.57723	0.00000	6065.28300
9.58106	0.00000	6065.28300
9.58491	0.00000	6065.28300
9.58874	0.00000	6065.28300
9.59257	0.00000	6065.28300
9.59640	0.00000	6065.28300
9.60025	0.00000	6065.28300
9.60409	0.00000	6065.28300
9.60793	0.00000	6053.73400
9.61176	0.00000	6053.73400
9.61561	0.00000	6053.73400
9.61945	0.00000	6053.73400
9.62329	0.00000	6053.73400
9.62712	0.00000	6053.73400
9.63097	0.00000	6053.73400
9.63480	0.00000	6053.73400
9.63865	0.00000	6057.54500
9.64249	0.00000	6057.54500
9.64634	0.00000	6057.54500
9.65018	0.00000	6057.54500
9.65403	0.00000	6057.54500
9.65787	0.00000	6057.54500
9.66171	0.00000	6057.54500
9.66555	0.00000	6057.54500
9.66940	0.00000	6057.54500
9.67324	0.00000	6061.48800
9.67707	0.00000	6061.48800
9.68091	0.00000	6061.48800
9.68474	0.00000	6061.48800
9.68858	0.00000	6061.48800
9.69244	0.00000	6061.48800
9.69628	0.00000	6061.48800
9.70011	0.00000	6061.48800
9.70394	0.00000	6067.97300
9.70780	0.00000	6067.97300
9.71163	0.00000	6067.97300
9.71547	0.00000	6067.97300
9.71931	0.00000	6067.97300
9.72316	0.00000	6067.97300
9.72700	0.00000	6067.97300
9.73084	0.00000	6067.97300
9.73467	0.00000	6062.24500
9.73851	0.00000	6062.24500
9.74236	0.00000	6062.24500
9.74620	0.00000	6062.24500
9.75004	0.00000	6062.24500
9.75388	0.00000	6062.24500
9.75771	0.00000	6062.24500
9.76156	0.00000	6062.24500
9.76540	0.00000	6062.24500
9.76923	0.00000	6063.26200
9.77307	0.00000	6063.26200
9.77692	0.00000	6063.26200
9.78074	0.00000	6063.26200
9.78459	0.00000	6063.26200
9.78842	0.00000	6063.26200
9.79226	0.00000	6063.26200
9.79611	0.00000	6063.26200
9.79996	0.00000	6066.06400
9.80380	0.00000	6066.06400
9.80764	0.00000	6066.06400
9.81147	0.00000	6066.06400
9.81533	0.00000	6066.06400
9.81917	0.00000	6066.06400
9.82300	0.00000	6066.06400
9.82684	0.00000	6066.06400
9.83069	0.00000	6055.64000
9.83452	0.00000	6055.64000
9.83837	0.00000	6055.64000
9.84220	0.00000	6055.64000
9.84605	0.00000	6055.64000
9.84988	0.00000	6055.64000
9.85373	0.00000	6055.64000
9.85756	0.00000	6055.64000
9.86141	0.00000	6053.73400
9.86526	0.00000	6053.73400
9.86909	0.00000	6053.73400
9.87292	0.00000	6053.73400
9.87674	0.00000	6053.73400
9.88057	0.00000	6053.73400
9.88442	0.00000	6053.73400
9.88825	0.00000	6053.73400
9.89208	0.00000	6053.73400
9.89591	0.00000	6067.07300
9.89975	0.00000	6067.07300
9.90359	0.00000	6067.07300
9.90742	0.00000	6067.07300
9.91127	0.00000	6067.07300
9.91510	0.00000	6067.07300
9.91893	0.00000	6067.07300
9.92278	0.00000	6067.07300
9.92663	0.00000	6060.33600
9.93047	0.00000	6060.33600
9.93431	0.00000	6060.33600
9.93814	0.00000	6060.33600
9.94197	0.00000	6060.33600
9.94581	0.00000	6060.33600
9.94964	0.00000	6060.33600
9.95349	0.00000	6060.33600
9.95732	0.00000	6060.33600
9.96118	0.00000	6060.33600
9.96501	0.00000	6060.33600
9.96884	0.00000	6060.33600
9.97268	0.00000	6060.33600
9.97653	0.00000	6060.33600
9.98036	0.00000	6060.33600
9.98419	0.00000	6060.33600
9.98803	0.00000	6060.33600
9.99187	0.00000	6055.79400
9.99571	0.00000	6055.79400
9.99955	0.00000	6055.79400
