Time (s)   Thrust (N)   RPM
0.00031	0.00000	5148.64800
0.00420	0.00000	5148.64800
0.00805	0.00000	5148.64800
0.01190	0.00000	5148.64800
0.01574	0.00000	5148.64800
0.01958	0.00000	5148.64800
0.02348	0.00000	5132.37200
0.02733	0.00000	5132.37200
0.03117	0.00000	5132.37200
0.03500	0.00000	5132.37200
0.03883	0.00000	5132.37200
0.04266	0.00000	5132.37200
0.04650	0.00000	5071.72100
0.05036	0.00000	5071.72100
0.05419	0.00000	5071.72100
0.05801	0.00000	5071.72100
0.06184	0.00000	5071.72100
0.06568	0.00000	5071.72100
0.06950	0.00000	5001.73100
0.07333	0.00000	5001.73100
0.07715	0.00000	5001.73100
0.08098	0.00000	5001.73100
0.08480	0.00000	5001.73100
0.08863	0.00000	5001.73100
0.09246	0.00000	4955.35700
0.09629	0.00000	4955.35700
0.10011	0.00000	4955.35700
0.10395	0.00000	4955.35700
0.10777	0.00000	4955.35700
0.11160	0.00000	4955.35700
0.11542	0.00000	4912.60600
0.11926	0.00000	4912.60600
0.12309	0.00000	4912.60600
0.12692	0.00000	4912.60600
0.13075	0.00000	4912.60600
0.13457	0.00000	4912.60600
0.13840	0.00000	4884.58800
0.14224	0.00000	4884.58800
0.14606	0.00000	4884.58800
0.14990	0.00000	4884.58800
0.15374	0.00000	4884.58800
0.15757	0.00000	4884.58800
0.16140	0.00000	4850.89300
0.16524	0.00000	4850.89300
0.16907	0.00000	4850.89300
0.17291	0.00000	4850.89300
0.17674	0.00000	4850.89300
0.18057	0.00000	4850.89300
0.18441	0.00000	4841.05600
0.18824	0.00000	4841.05600
0.19207	0.00000	4841.05600
0.19590	0.00000	4841.05600
0.19973	0.00000	4841.05600
0.20356	0.00000	4841.05600
0.20740	0.00000	4817.18300
0.21124	0.00000	4817.18300
0.21508	0.00000	4817.18300
0.21891	0.00000	4817.18300
0.22277	0.00000	4817.18300
0.22660	0.00000	4817.18300
0.23044	0.00000	4809.78200
0.23427	0.00000	4809.78200
0.23811	0.00000	4809.78200
0.24194	0.00000	4809.78200
0.24577	0.00000	4809.78200
0.24960	0.00000	4809.78200
0.25343	0.00000	4782.88500
0.25726	0.00000	4782.88500
0.26109	0.00000	4782.88500
0.26492	0.00000	4782.88500
0.26876	0.00000	4782.88500
0.27259	0.00000	4782.88500
0.27642	0.00000	4783.16300
0.28026	0.00000	4783.16300
0.28410	0.00000	4783.16300
0.28793	0.00000	4783.16300
0.29177	0.00000	4783.16300
0.29560	0.00000	4772.72700
0.29945	0.00000	4772.72700
0.30329	0.00000	4772.72700
0.30713	0.00000	4772.72700
0.31096	0.00000	4772.72700
0.31479	0.00000	4772.72700
0.31862	0.00000	4753.48200
0.32245	0.00000	4753.48200
0.32628	0.00000	4753.48200
0.33012	0.00000	4753.48200
0.33398	0.00000	4753.48200
0.33782	0.00000	4753.48200
0.34165	0.00000	4753.28900
0.34548	0.00000	4753.28900
0.34931	0.00000	4753.28900
0.35315	0.00000	4753.28900
0.35701	0.00000	4753.28900
0.36086	0.00000	4753.28900
0.36469	0.00000	4753.48200
0.36853	0.00000	4753.48200
0.37236	0.00000	4753.48200
0.37620	0.00000	4753.48200
0.38002	0.00000	4753.48200
0.38386	0.00000	4753.48200
0.38769	0.00000	4747.98400
0.39152	0.00000	4747.98400
0.39533	0.00000	4747.98400
0.39915	0.00000	4747.98400
0.40299	0.00000	4747.98400
0.40682	0.00000	4742.81000
0.41065	0.00000	4742.81000
0.41448	0.00000	4742.81000
0.41832	0.00000	4742.81000
0.42217	0.00000	4742.81000
0.42599	0.00000	4742.81000
0.42983	0.00000	4737.13200
0.43366	0.00000	4737.13200
0.43750	0.00000	4737.13200
0.44134	0.00000	4737.13200
0.44517	0.00000	4737.13200
0.44900	0.00000	4737.13200
0.45283	0.00000	4728.73900
0.45667	0.00000	4728.73900
0.46050	0.00000	4728.73900
0.46434	0.00000	4728.73900
0.46817	0.00000	4728.73900
0.47200	0.00000	4728.73900
0.47583	0.00000	4734.23700
0.47966	0.00000	4734.23700
0.48349	0.00000	4734.23700
0.48732	0.00000	4734.23700
0.49116	0.00000	4734.23700
0.49499	0.00000	4734.23700
0.49881	0.00000	4734.37500
0.50264	0.00000	4734.37500
0.50647	0.00000	4734.37500
0.51032	0.00000	4734.37500
0.51414	0.00000	4734.37500
0.51798	0.00000	4737.57400
0.52180	0.00000	4737.57400
0.52564	0.00000	4737.57400
0.52947	0.00000	4737.57400
0.53331	0.00000	4737.57400
0.53714	0.00000	4737.57400
0.54097	0.00000	4737.13200
0.54480	0.00000	4737.13200
0.54863	0.00000	4737.13200
0.55246	0.00000	4737.13200
0.55629	0.00000	4737.13200
0.56013	0.00000	4737.13200
0.56396	0.00000	4726.10300
0.56780	0.00000	4726.10300
0.57164	0.00000	4726.10300
0.57547	0.00000	4726.10300
0.57929	0.00000	4726.10300
0.58313	0.00000	4726.10300
0.58696	0.00000	4726.10300
0.59079	0.00000	4726.10300
0.59461	0.00000	4726.10300
0.59845	0.00000	4726.10300
0.60229	0.00000	4726.10300
0.60612	0.00000	4731.87800
0.60995	0.00000	4731.87800
0.61378	0.00000	4731.87800
0.61761	0.00000	4731.87800
0.62143	0.00000	4731.87800
0.62526	0.00000	4731.87800
0.62910	0.00000	4737.42600
0.63293	0.00000	4737.42600
0.63676	0.00000	4737.42600
0.64060	0.00000	4737.42600
0.64443	0.00000	4737.42600
0.64826	0.00000	4737.42600
0.65210	0.00000	4726.21700
0.65594	0.00000	4726.21700
0.65978	0.00000	4726.21700
0.66363	0.00000	4726.21700
0.66746	0.00000	4726.21700
0.67131	0.00000	4726.21700
0.67515	0.00000	4734.37500
0.67898	0.00000	4734.37500
0.68281	0.00000	4734.37500
0.68665	0.00000	4734.37500
0.69048	0.00000	4734.37500
0.69430	0.00000	4734.37500
0.69812	0.00000	4723.55700
0.70196	0.00000	4723.55700
0.70578	0.00000	4723.55700
0.70962	0.00000	4723.55700
0.71345	0.00000	4723.55700
0.71727	0.00000	4734.79200
0.72110	0.00000	4734.79200
0.72494	0.00000	4734.79200
0.72877	0.00000	4734.79200
0.73259	0.00000	4734.79200
0.73643	0.00000	4734.79200
0.74026	0.00000	4717.83100
0.74410	0.00000	4717.83100
0.74793	0.00000	4717.83100
0.75176	0.00000	4717.83100
0.75560	0.00000	4717.83100
0.75944	0.00000	4717.83100
0.76327	0.00000	4720.58800
0.76711	0.00000	4720.58800
0.77094	0.00000	4720.58800
0.77477	0.00000	4720.58800
0.77861	0.00000	4720.58800
0.78244	0.00000	4720.58800
0.78627	0.00000	4726.10300
0.79011	0.00000	4726.10300
0.79394	0.00000	4726.10300
0.79778	0.00000	4726.10300
0.80162	0.00000	4726.10300
0.80546	0.00000	4729.10500
0.80930	0.00000	4729.10500
0.81314	0.00000	4729.10500
0.81697	0.00000	4729.10500
0.82081	0.00000	4729.10500
0.82465	0.00000	4729.10500
0.82848	0.00000	4726.21700
0.83231	0.00000	4726.21700
0.83613	0.00000	4726.21700
0.83997	0.00000	4726.21700
0.84380	0.00000	4726.21700
0.84763	0.00000	4726.21700
0.85147	0.00000	4734.51300
0.85529	0.00000	4734.51300
0.85913	0.00000	4734.51300
0.86296	0.00000	4734.51300
0.86678	0.00000	4734.51300
0.87061	0.00000	4734.51300
0.87445	0.00000	4728.86000
0.87828	0.00000	4728.86000
0.88212	0.00000	4728.86000
0.88595	0.00000	4728.86000
0.88979	0.00000	4728.86000
0.89362	0.00000	4726.33100
0.89745	0.00000	4726.33100
0.90129	0.00000	4726.33100
0.90512	0.00000	4726.33100
0.90895	0.00000	4726.33100
0.91277	0.00000	4726.33100
0.91661	0.00000	4734.65200
0.92043	0.00000	4734.65200
0.92427	0.00000	4734.65200
0.92810	0.00000	4734.65200
0.93193	0.00000	4734.65200
0.93576	0.00000	4734.65200
0.93960	0.00000	4726.10300
0.94344	0.00000	4726.10300
0.94726	0.00000	4726.10300
0.95109	0.00000	4726.10300
0.95492	0.00000	4726.10300
0.95875	0.00000	4726.10300
0.96258	0.00000	4728.98200
0.96642	0.00000	4728.98200
0.97025	0.00000	4728.98200
0.97408	0.00000	4728.98200
0.97791	0.00000	4728.98200
0.98175	0.00000	4728.98200
0.98557	0.00000	4726.21700
0.98941	0.00000	4726.21700
0.99325	0.00000	4726.21700
0.99708	0.00000	4726.21700
1.00091	0.00000	4726.21700
1.00474	0.00000	4734.65200
1.00858	0.00000	4734.65200
1.01241	0.00000	4734.65200
1.01624	0.00000	4734.65200
1.02008	0.00000	4734.65200
1.02391	0.00000	4734.65200
1.02775	0.00000	4742.81000
1.03158	0.00000	4742.81000
1.03541	0.00000	4742.81000
1.03924	0.00000	4742.81000
1.04308	0.00000	4742.81000
1.04691	0.00000	4742.81000
1.05073	0.00000	4726.10300
1.05456	0.00000	4726.10300
1.05840	0.00000	4726.10300
1.06222	0.00000	4726.10300
1.06605	0.00000	4726.10300
1.06988	0.00000	4726.10300
1.07371	0.00000	4723.34500
1.07755	0.00000	4723.34500
1.08138	0.00000	4723.34500
1.08521	0.00000	4723.34500
1.08904	0.00000	4723.34500
1.09288	0.00000	4729.10500
1.09672	0.00000	4729.10500
1.10054	0.00000	4729.10500
1.10437	0.00000	4729.10500
1.10821	0.00000	4729.10500
1.11204	0.00000	4729.10500
1.11588	0.00000	4728.98200
1.11971	0.00000	4728.98200
1.12354	0.00000	4728.98200
1.12732	0.00000	4728.98200
1.13116	0.00000	4728.98200
1.13499	0.00000	4728.98200
1.13882	0.00000	4740.04400
1.14265	0.00000	4740.04400
1.14648	0.00000	4740.04400
1.15031	0.00000	4740.04400
1.15415	0.00000	4740.04400
1.15798	0.00000	4740.04400
1.16181	0.00000	4734.37500
1.16565	0.00000	4734.37500
1.16947	0.00000	4734.37500
1.17330	0.00000	4734.37500
1.17713	0.00000	4734.37500
1.18098	0.00000	4734.37500
1.18480	0.00000	4740.19900
1.18863	0.00000	4740.19900
1.19247	0.00000	4740.19900
1.19630	0.00000	4740.19900
1.20013	0.00000	4740.19900
1.20396	0.00000	4734.65200
1.20781	0.00000	4734.65200
1.21164	0.00000	4734.65200
1.21547	0.00000	4734.65200
1.21930	0.00000	4734.65200
1.22313	0.00000	4734.65200
1.22696	0.00000	4726.21700
1.23079	0.00000	4726.21700
1.23464	0.00000	4726.21700
1.23848	0.00000	4726.21700
1.24231	0.00000	4726.21700
1.24614	0.00000	4726.21700
1.24998	0.00000	4737.13200
1.25382	0.00000	4737.13200
1.25765	0.00000	4737.13200
1.26148	0.00000	4737.13200
1.26531	0.00000	4737.13200
1.26915	0.00000	4737.13200
1.27299	0.00000	4725.98900
1.27682	0.00000	4725.98900
1.28065	0.00000	4725.98900
1.28449	0.00000	4725.98900
1.28833	0.00000	4725.98900
1.29216	0.00000	4729.10500
1.29600	0.00000	4729.10500
1.29982	0.00000	4729.10500
1.30365	0.00000	4729.10500
1.30749	0.00000	4729.10500
1.31133	0.00000	4729.10500
1.31516	0.00000	4726.21700
1.31899	0.00000	4726.21700
1.32283	0.00000	4726.21700
1.32665	0.00000	4726.21700
1.33049	0.00000	4726.21700
1.33431	0.00000	4726.21700
1.33814	0.00000	4728.86000
1.34197	0.00000	4728.86000
1.34581	0.00000	4728.86000
1.34965	0.00000	4728.86000
1.35347	0.00000	4728.86000
1.35730	0.00000	4728.86000
1.36112	0.00000	4728.98200
1.36495	0.00000	4728.98200
1.36878	0.00000	4728.98200
1.37262	0.00000	4728.98200
1.37644	0.00000	4728.98200
1.38027	0.00000	4728.98200
1.38409	0.00000	4731.87800
1.38792	0.00000	4731.87800
1.39175	0.00000	4731.87800
1.39559	0.00000	4731.87800
1.39942	0.00000	4731.87800
1.40325	0.00000	4734.79200
1.40710	0.00000	4734.79200
1.41094	0.00000	4734.79200
1.41478	0.00000	4734.79200
1.41861	0.00000	4734.79200
1.42246	0.00000	4734.79200
1.42629	0.00000	4728.86000
1.43012	0.00000	4728.86000
1.43396	0.00000	4728.86000
1.43780	0.00000	4728.86000
1.44164	0.00000	4728.86000
1.44548	0.00000	4728.86000
1.44931	0.00000	4742.81000
1.45313	0.00000	4742.81000
1.45697	0.00000	4742.81000
1.46081	0.00000	4742.81000
1.46465	0.00000	4742.81000
1.46847	0.00000	4742.81000
1.47230	0.00000	4734.51300
1.47614	0.00000	4734.51300
1.47997	0.00000	4734.51300
1.48380	0.00000	4734.51300
1.48762	0.00000	4734.51300
1.49145	0.00000	4723.55700
1.49527	0.00000	4723.55700
1.49912	0.00000	4723.55700
1.50295	0.00000	4723.55700
1.50678	0.00000	4723.55700
1.51063	0.00000	4723.55700
1.51447	0.00000	4728.86000
1.51829	0.00000	4728.86000
1.52213	0.00000	4728.86000
1.52597	0.00000	4728.86000
1.52979	0.00000	4728.86000
1.53362	0.00000	4728.86000
1.53746	0.00000	4734.51300
1.54128	0.00000	4734.51300
1.54511	0.00000	4734.51300
1.54894	0.00000	4734.51300
1.55277	0.00000	4734.51300
1.55660	0.00000	4734.51300
1.56044	0.00000	4731.61700
1.56427	0.00000	4731.61700
1.56810	0.00000	4731.61700
1.57193	0.00000	4731.61700
1.57575	0.00000	4731.61700
1.57958	0.00000	4734.79200
1.58340	0.00000	4734.79200
1.58723	0.00000	4734.79200
1.59106	0.00000	4734.79200
1.59491	0.00000	4734.79200
1.59873	0.00000	4734.79200
1.60256	0.00000	4734.51300
1.60639	0.00000	4734.51300
1.61021	0.00000	4734.51300
1.61406	0.00000	4734.51300
1.61789	0.00000	4734.51300
1.62174	0.00000	4734.51300
1.62557	0.00000	4723.34500
1.62940	0.00000	4723.34500
1.63323	0.00000	4723.34500
1.63707	0.00000	4723.34500
1.64090	0.00000	4723.34500
1.64473	0.00000	4723.34500
1.64857	0.00000	4720.58800
1.65239	0.00000	4720.58800
1.65622	0.00000	4720.58800
1.66005	0.00000	4720.58800
1.66389	0.00000	4720.58800
1.66772	0.00000	4720.58800
1.67155	0.00000	4715.15500
1.67538	0.00000	4715.15500
1.67920	0.00000	4715.15500
1.68303	0.00000	4715.15500
1.68686	0.00000	4715.15500
1.69069	0.00000	4732.01000
1.69453	0.00000	4732.01000
1.69837	0.00000	4732.01000
1.70220	0.00000	4732.01000
1.70603	0.00000	4732.01000
1.70986	0.00000	4732.01000
1.71370	0.00000	4728.86000
1.71753	0.00000	4728.86000
1.72136	0.00000	4728.86000
1.72519	0.00000	4728.86000
1.72902	0.00000	4728.86000
1.73285	0.00000	4728.86000
1.73668	0.00000	4734.37500
1.74052	0.00000	4734.37500
1.74435	0.00000	4734.37500
1.74818	0.00000	4734.37500
1.75201	0.00000	4734.37500
1.75584	0.00000	4734.37500
1.75967	0.00000	4726.10300
1.76349	0.00000	4726.10300
1.76733	0.00000	4726.10300
1.77116	0.00000	4726.10300
1.77499	0.00000	4726.10300
1.77884	0.00000	4726.33100
1.78266	0.00000	4726.33100
1.78651	0.00000	4726.33100
1.79034	0.00000	4726.33100
1.79417	0.00000	4726.33100
1.79800	0.00000	4726.33100
1.80183	0.00000	4728.98200
1.80566	0.00000	4728.98200
1.80949	0.00000	4728.98200
1.81331	0.00000	4728.98200
1.81714	0.00000	4728.98200
1.82097	0.00000	4728.98200
1.82480	0.00000	4723.34500
1.82863	0.00000	4723.34500
1.83245	0.00000	4723.34500
1.83628	0.00000	4723.34500
1.84012	0.00000	4723.34500
1.84395	0.00000	4723.34500
1.84777	0.00000	4717.83100
1.85160	0.00000	4717.83100
1.85544	0.00000	4717.83100
1.85927	0.00000	4717.83100
1.86311	0.00000	4717.83100
1.86694	0.00000	4717.83100
1.87076	0.00000	4731.74800
1.87459	0.00000	4731.74800
1.87843	0.00000	4731.74800
1.88227	0.00000	4731.74800
1.88611	0.00000	4731.74800
1.88995	0.00000	4740.19900
1.89378	0.00000	4740.19900
1.89763	0.00000	4740.19900
1.90147	0.00000	4740.19900
1.90530	0.00000	4740.19900
1.90913	0.00000	4740.19900
1.91296	0.00000	4734.37500
1.91679	0.00000	4734.37500
1.92063	0.00000	4734.37500
1.92445	0.00000	4734.37500
1.92828	0.00000	4734.37500
1.93212	0.00000	4734.37500
1.93596	0.00000	4739.88900
1.93980	0.00000	4739.88900
1.94363	0.00000	4739.88900
1.94747	0.00000	4739.88900
1.95129	0.00000	4739.88900
1.95514	0.00000	4739.88900
1.95897	0.00000	4728.73900
1.96279	0.00000	4728.73900
1.96663	0.00000	4728.73900
1.97047	0.00000	4728.73900
1.97429	0.00000	4728.73900
1.97813	0.00000	4740.19900
1.98196	0.00000	4740.19900
1.98580	0.00000	4740.19900
1.98963	0.00000	4740.19900
1.99346	0.00000	4740.19900
1.99730	0.00000	4740.19900
2.00113	0.00000	4737.42600
2.00496	0.00000	4737.42600
2.00879	0.00000	4737.42600
2.01262	0.00000	4737.42600
2.01646	0.00000	4737.42600
2.02029	0.00000	4737.42600
2.02412	0.00000	4726.10300
2.02795	0.00000	4726.10300
2.03178	0.00000	4726.10300
2.03562	0.00000	4726.10300
2.03946	0.00000	4726.10300
2.04329	0.00000	4726.10300
2.04714	0.00000	4715.07300
2.05097	0.00000	4715.07300
2.05480	0.00000	4715.07300
2.05863	0.00000	4715.07300
2.06246	0.00000	4715.07300
2.06629	0.00000	4715.07300
2.07011	0.00000	4731.87800
2.07394	0.00000	4731.87800
2.07777	0.00000	4731.87800
2.08162	0.00000	4731.87800
2.08545	0.00000	4731.87800
2.08928	0.00000	4734.65200
2.09311	0.00000	4734.65200
2.09695	0.00000	4734.65200
2.10079	0.00000	4734.65200
2.10464	0.00000	4734.65200
2.10848	0.00000	4734.65200
2.11231	0.00000	4734.37500
2.11616	0.00000	4734.37500
2.11999	0.00000	4734.37500
2.12383	0.00000	4734.37500
2.12766	0.00000	4734.37500
2.13148	0.00000	4734.37500
2.13531	0.00000	4734.51300
2.13914	0.00000	4734.51300
2.14298	0.00000	4734.51300
2.14680	0.00000	4734.51300
2.15063	0.00000	4734.51300
2.15447	0.00000	4734.51300
2.15831	0.00000	4734.37500
2.16214	0.00000	4734.37500
2.16597	0.00000	4734.37500
2.16981	0.00000	4734.37500
2.17364	0.00000	4734.37500
2.17748	0.00000	4748.70100
2.18134	0.00000	4748.70100
2.18518	0.00000	4748.70100
2.18900	0.00000	4748.70100
2.19283	0.00000	4748.70100
2.19666	0.00000	4748.70100
2.20050	0.00000	4726.10300
2.20434	0.00000	4726.10300
2.20817	0.00000	4726.10300
2.21200	0.00000	4726.10300
2.21583	0.00000	4726.10300
2.21965	0.00000	4726.10300
2.22349	0.00000	4734.37500
2.22732	0.00000	4734.37500
2.23117	0.00000	4734.37500
2.23500	0.00000	4734.37500
2.23882	0.00000	4734.37500
2.24265	0.00000	4734.37500
2.24648	0.00000	4734.37500
2.25032	0.00000	4734.37500
2.25415	0.00000	4734.37500
2.25798	0.00000	4734.37500
2.26181	0.00000	4734.37500
2.26564	0.00000	4740.35600
2.26946	0.00000	4740.35600
2.27330	0.00000	4740.35600
2.27713	0.00000	4740.35600
2.28097	0.00000	4740.35600
2.28480	0.00000	4740.35600
2.28863	0.00000	4731.87800
2.29246	0.00000	4731.87800
2.29629	0.00000	4731.87800
2.30013	0.00000	4731.87800
2.30396	0.00000	4731.87800
2.30779	0.00000	4731.87800
2.31163	0.00000	4728.86000
2.31546	0.00000	4728.86000
2.31930	0.00000	4728.86000
2.32314	0.00000	4728.86000
2.32696	0.00000	4728.86000
2.33081	0.00000	4728.86000
2.33464	0.00000	4748.16100
2.33849	0.00000	4748.16100
2.34233	0.00000	4748.16100
2.34617	0.00000	4748.16100
2.35001	0.00000	4748.16100
2.35385	0.00000	4748.16100
2.35769	0.00000	4742.64700
2.36153	0.00000	4742.64700
2.36537	0.00000	4742.64700
2.36921	0.00000	4742.64700
2.37304	0.00000	4742.64700
2.37687	0.00000	4740.35600
2.38071	0.00000	4740.35600
2.38455	0.00000	4740.35600
2.38839	0.00000	4740.35600
2.39221	0.00000	4740.35600
2.39604	0.00000	4740.35600
2.39987	0.00000	4728.86000
2.40369	0.00000	4728.86000
2.40752	0.00000	4728.86000
2.41133	0.00000	4728.86000
2.41516	0.00000	4728.86000
2.41899	0.00000	4728.86000
2.42281	0.00000	4726.10300
2.42664	0.00000	4726.10300
2.43048	0.00000	4726.10300
2.43431	0.00000	4726.10300
2.43813	0.00000	4726.10300
2.44197	0.00000	4726.10300
2.44581	0.00000	4748.16100
2.44965	0.00000	4748.16100
2.45348	0.00000	4748.16100
2.45731	0.00000	4748.16100
2.46114	0.00000	4748.16100
2.46498	0.00000	4742.97300
2.46880	0.00000	4742.97300
2.47266	0.00000	4742.97300
2.47649	0.00000	4742.97300
2.48033	0.00000	4742.97300
2.48416	0.00000	4742.97300
2.48801	0.00000	4745.74700
2.49183	0.00000	4745.74700
2.49566	0.00000	4745.74700
2.49950	0.00000	4745.74700
2.50332	0.00000	4745.74700
2.50716	0.00000	4745.74700
2.51100	0.00000	4750.91900
2.51483	0.00000	4750.91900
2.51868	0.00000	4750.91900
2.52253	0.00000	4750.91900
2.52637	0.00000	4750.91900
2.53021	0.00000	4750.91900
2.53404	0.00000	4734.37500
2.53787	0.00000	4734.37500
2.54171	0.00000	4734.37500
2.54558	0.00000	4734.37500
2.54943	0.00000	4734.37500
2.55326	0.00000	4734.37500
2.55710	0.00000	4723.34500
2.56093	0.00000	4723.34500
2.56476	0.00000	4723.34500
2.56860	0.00000	4723.34500
2.57244	0.00000	4723.34500
2.57628	0.00000	4740.35600
2.58012	0.00000	4740.35600
2.58396	0.00000	4740.35600
2.58779	0.00000	4740.35600
2.59163	0.00000	4740.35600
2.59546	0.00000	4740.35600
2.59930	0.00000	4731.61700
2.60313	0.00000	4731.61700
2.60696	0.00000	4731.61700
2.61079	0.00000	4731.61700
2.61462	0.00000	4731.61700
2.61846	0.00000	4731.61700
2.62230	0.00000	4725.98900
2.62612	0.00000	4725.98900
2.62995	0.00000	4725.98900
2.63379	0.00000	4725.98900
2.63761	0.00000	4725.98900
2.64145	0.00000	4725.98900
2.64528	0.00000	4737.13200
2.64911	0.00000	4737.13200
2.65294	0.00000	4737.13200
2.65677	0.00000	4737.13200
2.66060	0.00000	4737.13200
2.66443	0.00000	4734.65200
2.66825	0.00000	4734.65200
2.67208	0.00000	4734.65200
2.67591	0.00000	4734.65200
2.67974	0.00000	4734.65200
2.68358	0.00000	4734.65200
2.68742	0.00000	4728.98200
2.69125	0.00000	4728.98200
2.69508	0.00000	4728.98200
2.69891	0.00000	4728.98200
2.70275	0.00000	4728.98200
2.70658	0.00000	4728.98200
2.71042	0.00000	4728.73900
2.71425	0.00000	4728.73900
2.71809	0.00000	4728.73900
2.72192	0.00000	4728.73900
2.72575	0.00000	4728.73900
2.72959	0.00000	4728.73900
2.73342	0.00000	4739.88900
2.73725	0.00000	4739.88900
2.74108	0.00000	4739.88900
2.74491	0.00000	4739.88900
2.74874	0.00000	4739.88900
2.75257	0.00000	4739.88900
2.75641	0.00000	4739.88900
2.76024	0.00000	4739.88900
2.76407	0.00000	4739.88900
2.76790	0.00000	4739.88900
2.77174	0.00000	4739.88900
2.77558	0.00000	4740.35600
2.77941	0.00000	4740.35600
2.78325	0.00000	4740.35600
2.78707	0.00000	4740.35600
2.79090	0.00000	4740.35600
2.79474	0.00000	4740.35600
2.79856	0.00000	4734.37500
2.80240	0.00000	4734.37500
2.80624	0.00000	4734.37500
2.81008	0.00000	4734.37500
2.81392	0.00000	4734.37500
2.81776	0.00000	4734.37500
2.82159	0.00000	4739.88900
2.82544	0.00000	4739.88900
2.82928	0.00000	4739.88900
2.83311	0.00000	4739.88900
2.83695	0.00000	4739.88900
2.84080	0.00000	4739.88900
2.84463	0.00000	4745.40400
2.84846	0.00000	4745.40400
2.85229	0.00000	4745.40400
2.85612	0.00000	4745.40400
2.85995	0.00000	4745.40400
2.86378	0.00000	4748.70100
2.86760	0.00000	4748.70100
2.87143	0.00000	4748.70100
2.87527	0.00000	4748.70100
2.87911	0.00000	4748.70100
2.88295	0.00000	4748.70100
2.88678	0.00000	4745.74700
2.89061	0.00000	4745.74700
2.89445	0.00000	4745.74700
2.89828	0.00000	4745.74700
2.90211	0.00000	4745.74700
2.90594	0.00000	4745.74700
2.90978	0.00000	4748.16100
2.91361	0.00000	4748.16100
2.91744	0.00000	4748.16100
2.92128	0.00000	4748.16100
2.92511	0.00000	4748.16100
2.92895	0.00000	4748.16100
2.93279	0.00000	4737.13200
2.93662	0.00000	4737.13200
2.94045	0.00000	4737.13200
2.94428	0.00000	4737.13200
2.94811	0.00000	4737.13200
2.95194	0.00000	4737.13200
2.95577	0.00000	4742.64700
2.95959	0.00000	4742.64700
2.96342	0.00000	4742.64700
2.96728	0.00000	4742.64700
2.97111	0.00000	4742.64700
2.97494	0.00000	4740.19900
2.97878	0.00000	4740.19900
2.98261	0.00000	4740.19900
2.98644	0.00000	4740.19900
2.99027	0.00000	4740.19900
2.99410	0.00000	4740.19900
2.99794	0.00000	4737.27900
3.00177	0.00000	4737.27900
3.00561	0.00000	4737.27900
3.00944	0.00000	4737.27900
3.01328	0.00000	4737.27900
3.01711	0.00000	4737.27900
3.02094	0.00000	4748.16100
3.02478	0.00000	4748.16100
3.02862	0.00000	4748.16100
3.03246	0.00000	4748.16100
3.03630	0.00000	4748.16100
3.04015	0.00000	4748.16100
3.04397	0.00000	4742.64700
3.04781	0.00000	4742.64700
3.05164	0.00000	4742.64700
3.05547	0.00000	4742.64700
3.05931	0.00000	4742.64700
3.06314	0.00000	4742.64700
3.06696	0.00000	4740.04400
3.07080	0.00000	4740.04400
3.07464	0.00000	4740.04400
3.07849	0.00000	4740.04400
3.08232	0.00000	4740.04400
3.08615	0.00000	4748.52000
3.09000	0.00000	4748.52000
3.09383	0.00000	4748.52000
3.09766	0.00000	4748.52000
3.10149	0.00000	4748.52000
3.10531	0.00000	4748.52000
3.10915	0.00000	4737.13200
3.11298	0.00000	4737.13200
3.11681	0.00000	4737.13200
3.12064	0.00000	4737.13200
3.12447	0.00000	4737.13200
3.12831	0.00000	4737.13200
3.13215	0.00000	4737.13200
3.13598	0.00000	4737.13200
3.13983	0.00000	4737.13200
3.14365	0.00000	4737.13200
3.14750	0.00000	4737.13200
3.15133	0.00000	4737.13200
3.15516	0.00000	4728.73900
3.15898	0.00000	4728.73900
3.16281	0.00000	4728.73900
3.16664	0.00000	4728.73900
3.17047	0.00000	4728.73900
3.17431	0.00000	4731.87800
3.17815	0.00000	4731.87800
3.18198	0.00000	4731.87800
3.18581	0.00000	4731.87800
3.18964	0.00000	4731.87800
3.19348	0.00000	4731.87800
3.19732	0.00000	4740.19900
3.20115	0.00000	4740.19900
3.20499	0.00000	4740.19900
3.20885	0.00000	4740.19900
3.21267	0.00000	4740.19900
3.21651	0.00000	4740.19900
3.22034	0.00000	4739.88900
3.22417	0.00000	4739.88900
3.22800	0.00000	4739.88900
3.23184	0.00000	4739.88900
3.23569	0.00000	4739.88900
3.23952	0.00000	4739.88900
3.24333	0.00000	4731.48800
3.24715	0.00000	4731.48800
3.25099	0.00000	4731.48800
3.25482	0.00000	4731.48800
3.25866	0.00000	4731.48800
3.26249	0.00000	4731.48800
3.26631	0.00000	4726.10300
3.27014	0.00000	4726.10300
3.27398	0.00000	4726.10300
3.27782	0.00000	4726.10300
3.28165	0.00000	4726.10300
3.28548	0.00000	4740.35600
3.28931	0.00000	4740.35600
3.29315	0.00000	4740.35600
3.29698	0.00000	4740.35600
3.30082	0.00000	4740.35600
3.30466	0.00000	4740.35600
3.30850	0.00000	4726.10300
3.31234	0.00000	4726.10300
3.31617	0.00000	4726.10300
3.32000	0.00000	4726.10300
3.32384	0.00000	4726.10300
3.32767	0.00000	4726.10300
3.33150	0.00000	4728.86000
3.33533	0.00000	4728.86000
3.33916	0.00000	4728.86000
3.34300	0.00000	4728.86000
3.34683	0.00000	4728.86000
3.35067	0.00000	4728.86000
3.35450	0.00000	4737.13200
3.35833	0.00000	4737.13200
3.36216	0.00000	4737.13200
3.36599	0.00000	4737.13200
3.36983	0.00000	4737.13200
3.37366	0.00000	4729.10500
3.37751	0.00000	4729.10500
3.38135	0.00000	4729.10500
3.38518	0.00000	4729.10500
3.38901	0.00000	4729.10500
3.39284	0.00000	4729.10500
3.39668	0.00000	4728.98200
3.40051	0.00000	4728.98200
3.40434	0.00000	4728.98200
3.40818	0.00000	4728.98200
3.41202	0.00000	4728.98200
3.41586	0.00000	4728.98200
3.41970	0.00000	4720.58800
3.42353	0.00000	4720.58800
3.42733	0.00000	4720.58800
3.43117	0.00000	4720.58800
3.43500	0.00000	4720.58800
3.43884	0.00000	4720.58800
3.44266	0.00000	4737.13200
3.44650	0.00000	4737.13200
3.45034	0.00000	4737.13200
3.45416	0.00000	4737.13200
3.45799	0.00000	4737.13200
3.46182	0.00000	4737.13200
3.46565	0.00000	4737.27900
3.46948	0.00000	4737.27900
3.47331	0.00000	4737.27900
3.47714	0.00000	4737.27900
3.48097	0.00000	4737.27900
3.48480	0.00000	4745.92000
3.48864	0.00000	4745.92000
3.49248	0.00000	4745.92000
3.49630	0.00000	4745.92000
3.50014	0.00000	4745.92000
3.50397	0.00000	4745.92000
3.50779	0.00000	4731.61700
3.51163	0.00000	4731.61700
3.51545	0.00000	4731.61700
3.51928	0.00000	4731.61700
3.52313	0.00000	4731.61700
3.52697	0.00000	4731.61700
3.53079	0.00000	4726.10300
3.53463	0.00000	4726.10300
3.53846	0.00000	4726.10300
3.54229	0.00000	4726.10300
3.54611	0.00000	4726.10300
3.54995	0.00000	4726.10300
3.55379	0.00000	4734.37500
3.55762	0.00000	4734.37500
3.56145	0.00000	4734.37500
3.56528	0.00000	4734.37500
3.56911	0.00000	4734.37500
3.57295	0.00000	4737.42600
3.57680	0.00000	4737.42600
3.58062	0.00000	4737.42600
3.58446	0.00000	4737.42600
3.58829	0.00000	4737.42600
3.59213	0.00000	4737.42600
3.59597	0.00000	4728.86000
3.59980	0.00000	4728.86000
3.60364	0.00000	4728.86000
3.60747	0.00000	4728.86000
3.61131	0.00000	4728.86000
3.61514	0.00000	4728.86000
3.61897	0.00000	4731.61700
3.62281	0.00000	4731.61700
3.62665	0.00000	4731.61700
3.63048	0.00000	4731.61700
3.63432	0.00000	4731.61700
3.63815	0.00000	4731.61700
3.64199	0.00000	4737.13200
3.64582	0.00000	4737.13200
3.64965	0.00000	4737.13200
3.65348	0.00000	4737.13200
3.65731	0.00000	4737.13200
3.66115	0.00000	4737.13200
3.66497	0.00000	4737.42600
3.66880	0.00000	4737.42600
3.67263	0.00000	4737.42600
3.67647	0.00000	4737.42600
3.68030	0.00000	4737.42600
3.68413	0.00000	4737.42600
3.68797	0.00000	4737.42600
3.69181	0.00000	4737.42600
3.69564	0.00000	4737.42600
3.69947	0.00000	4737.42600
3.70330	0.00000	4737.42600
3.70714	0.00000	4731.61700
3.71097	0.00000	4731.61700
3.71481	0.00000	4731.61700
3.71863	0.00000	4731.61700
3.72246	0.00000	4731.61700
3.72630	0.00000	4731.61700
3.73014	0.00000	4725.98900
3.73399	0.00000	4725.98900
3.73782	0.00000	4725.98900
3.74166	0.00000	4725.98900
3.74549	0.00000	4725.98900
3.74932	0.00000	4725.98900
3.75316	0.00000	4726.10300
3.75700	0.00000	4726.10300
3.76083	0.00000	4726.10300
3.76465	0.00000	4726.10300
3.76849	0.00000	4726.10300
3.77232	0.00000	4734.79200
3.77616	0.00000	4734.79200
3.78000	0.00000	4734.79200
3.78383	0.00000	4734.79200
3.78766	0.00000	4734.79200
3.79150	0.00000	4734.79200
3.79533	0.00000	4737.27900
3.79916	0.00000	4737.27900
3.80300	0.00000	4737.27900
3.80682	0.00000	4737.27900
3.81066	0.00000	4737.27900
3.81448	0.00000	4737.27900
3.81831	0.00000	4737.27900
3.82214	0.00000	4737.27900
3.82596	0.00000	4737.27900
3.82980	0.00000	4737.27900
3.83363	0.00000	4737.27900
3.83746	0.00000	4737.27900
3.84130	0.00000	4731.61700
3.84512	0.00000	4731.61700
3.84896	0.00000	4731.61700
3.85279	0.00000	4731.61700
3.85662	0.00000	4731.61700
3.86045	0.00000	4731.87800
3.86427	0.00000	4731.87800
3.86811	0.00000	4731.87800
3.87194	0.00000	4731.87800
3.87577	0.00000	4731.87800
3.87960	0.00000	4731.87800
3.88343	0.00000	4726.33100
3.88725	0.00000	4726.33100
3.89109	0.00000	4726.33100
3.89492	0.00000	4726.33100
3.89876	0.00000	4726.33100
3.90259	0.00000	4726.33100
3.90643	0.00000	4723.34500
3.91026	0.00000	4723.34500
3.91410	0.00000	4723.34500
3.91794	0.00000	4723.34500
3.92177	0.00000	4723.34500
3.92559	0.00000	4723.34500
3.92942	0.00000	4712.31600
3.93326	0.00000	4712.31600
3.93709	0.00000	4712.31600
3.94092	0.00000	4712.31600
3.94475	0.00000	4712.31600
3.94858	0.00000	4712.31600
3.95243	0.00000	4728.98200
3.95626	0.00000	4728.98200
3.96009	0.00000	4728.98200
3.96392	0.00000	4728.98200
3.96777	0.00000	4728.98200
3.97161	0.00000	4732.01000
3.97544	0.00000	4732.01000
3.97927	0.00000	4732.01000
3.98311	0.00000	4732.01000
3.98694	0.00000	4732.01000
3.99078	0.00000	4732.01000
3.99461	0.00000	4723.34500
3.99844	0.00000	4723.34500
4.00228	0.00000	4723.34500
4.00611	0.00000	4723.34500
4.00994	0.00000	4723.34500
4.01376	0.00000	4723.34500
4.01759	0.00000	4726.10300
4.02142	0.00000	4726.10300
4.02525	0.00000	4726.10300
4.02909	0.00000	4726.10300
4.03292	0.00000	4726.10300
4.03675	0.00000	4726.10300
4.04058	0.00000	4715.07300
4.04442	0.00000	4715.07300
4.04825	0.00000	4715.07300
4.05207	0.00000	4715.07300
4.05591	0.00000	4715.07300
4.05973	0.00000	4726.33100
4.06358	0.00000	4726.33100
4.06741	0.00000	4726.33100
4.07124	0.00000	4726.33100
4.07507	0.00000	4726.33100
4.07891	0.00000	4726.33100
4.08273	0.00000	4728.98200
4.08657	0.00000	4728.98200
4.09040	0.00000	4728.98200
4.09424	0.00000	4728.98200
4.09807	0.00000	4728.98200
4.10190	0.00000	4728.98200
4.10573	0.00000	4728.86000
4.10955	0.00000	4728.86000
4.11339	0.00000	4728.86000
4.11722	0.00000	4728.86000
4.12106	0.00000	4728.86000
4.12489	0.00000	4728.86000
4.12871	0.00000	4731.61700
4.13255	0.00000	4731.61700
4.13639	0.00000	4731.61700
4.14022	0.00000	4731.61700
4.14406	0.00000	4731.61700
4.14789	0.00000	4731.61700
4.15171	0.00000	4723.45100
4.15555	0.00000	4723.45100
4.15938	0.00000	4723.45100
4.16322	0.00000	4723.45100
4.16707	0.00000	4723.45100
4.17091	0.00000	4726.33100
4.17474	0.00000	4726.33100
4.17857	0.00000	4726.33100
4.18241	0.00000	4726.33100
4.18624	0.00000	4726.33100
4.19007	0.00000	4726.33100
4.19390	0.00000	4720.58800
4.19774	0.00000	4720.58800
4.20157	0.00000	4720.58800
4.20539	0.00000	4720.58800
4.20922	0.00000	4720.58800
4.21306	0.00000	4720.58800
4.21689	0.00000	4717.83100
4.22073	0.00000	4717.83100
4.22457	0.00000	4717.83100
4.22839	0.00000	4717.83100
4.23222	0.00000	4717.83100
4.23606	0.00000	4717.83100
4.23988	0.00000	4723.34500
4.24371	0.00000	4723.34500
4.24754	0.00000	4723.34500
4.25138	0.00000	4723.34500
4.25520	0.00000	4723.34500
4.25903	0.00000	4718.01000
4.26286	0.00000	4718.01000
4.26669	0.00000	4718.01000
4.27052	0.00000	4718.01000
4.27435	0.00000	4718.01000
4.27818	0.00000	4718.01000
4.28202	0.00000	4723.34500
4.28585	0.00000	4723.34500
4.28968	0.00000	4723.34500
4.29351	0.00000	4723.34500
4.29733	0.00000	4723.34500
4.30116	0.00000	4723.34500
4.30500	0.00000	4734.51300
4.30884	0.00000	4734.51300
4.31267	0.00000	4734.51300
4.31650	0.00000	4734.51300
4.32034	0.00000	4734.51300
4.32417	0.00000	4734.51300
4.32799	0.00000	4731.61700
4.33183	0.00000	4731.61700
4.33567	0.00000	4731.61700
4.33951	0.00000	4731.61700
4.34333	0.00000	4731.61700
4.34716	0.00000	4726.33100
4.35099	0.00000	4726.33100
4.35481	0.00000	4726.33100
4.35864	0.00000	4726.33100
4.36246	0.00000	4726.33100
4.36629	0.00000	4726.33100
4.37014	0.00000	4731.87800
4.37398	0.00000	4731.87800
4.37782	0.00000	4731.87800
4.38165	0.00000	4731.87800
4.38547	0.00000	4731.87800
4.38931	0.00000	4731.87800
4.39315	0.00000	4734.37500
4.39698	0.00000	4734.37500
4.40081	0.00000	4734.37500
4.40464	0.00000	4734.37500
4.40848	0.00000	4734.37500
4.41230	0.00000	4734.37500
4.41613	0.00000	4723.24000
4.41997	0.00000	4723.24000
4.42381	0.00000	4723.24000
4.42763	0.00000	4723.24000
4.43146	0.00000	4723.24000
4.43529	0.00000	4723.24000
4.43912	0.00000	4734.51300
4.44296	0.00000	4734.51300
4.44679	0.00000	4734.51300
4.45063	0.00000	4734.51300
4.45446	0.00000	4734.51300
4.45830	0.00000	4720.78400
4.46213	0.00000	4720.78400
4.46596	0.00000	4720.78400
4.46979	0.00000	4720.78400
4.47362	0.00000	4720.78400
4.47744	0.00000	4720.78400
4.48127	0.00000	4726.21700
4.48510	0.00000	4726.21700
4.48893	0.00000	4726.21700
4.49276	0.00000	4726.21700
4.49659	0.00000	4726.21700
4.50042	0.00000	4726.21700
4.50426	0.00000	4734.37500
4.50809	0.00000	4734.37500
4.51193	0.00000	4734.37500
4.51575	0.00000	4734.37500
4.51959	0.00000	4734.37500
4.52343	0.00000	4734.37500
4.52725	0.00000	4740.04400
4.53108	0.00000	4740.04400
4.53492	0.00000	4740.04400
4.53874	0.00000	4740.04400
4.54257	0.00000	4740.04400
4.54639	0.00000	4737.57400
4.55023	0.00000	4737.57400
4.55407	0.00000	4737.57400
4.55790	0.00000	4737.57400
4.56173	0.00000	4737.57400
4.56556	0.00000	4737.57400
4.56940	0.00000	4742.97300
4.57322	0.00000	4742.97300
4.57705	0.00000	4742.97300
4.58089	0.00000	4742.97300
4.58473	0.00000	4742.97300
4.58856	0.00000	4742.97300
4.59239	0.00000	4734.51300
4.59622	0.00000	4734.51300
4.60006	0.00000	4734.51300
4.60389	0.00000	4734.51300
4.60772	0.00000	4734.51300
4.61155	0.00000	4734.51300
4.61539	0.00000	4720.58800
4.61922	0.00000	4720.58800
4.62305	0.00000	4720.58800
4.62689	0.00000	4720.58800
4.63072	0.00000	4720.58800
4.63455	0.00000	4720.58800
4.63837	0.00000	4726.10300
4.64220	0.00000	4726.10300
4.64603	0.00000	4726.10300
4.64986	0.00000	4726.10300
4.65369	0.00000	4726.10300
4.65752	0.00000	4737.57400
4.66137	0.00000	4737.57400
4.66521	0.00000	4737.57400
4.66905	0.00000	4737.57400
4.67288	0.00000	4737.57400
4.67671	0.00000	4737.57400
4.68054	0.00000	4742.81000
4.68436	0.00000	4742.81000
4.68820	0.00000	4742.81000
4.69202	0.00000	4742.81000
4.69585	0.00000	4742.81000
4.69967	0.00000	4742.81000
4.70351	0.00000	4726.21700
4.70732	0.00000	4726.21700
4.71116	0.00000	4726.21700
4.71500	0.00000	4726.21700
4.71882	0.00000	4726.21700
4.72265	0.00000	4726.21700
4.72648	0.00000	4731.61700
4.73032	0.00000	4731.61700
4.73415	0.00000	4731.61700
4.73798	0.00000	4731.61700
4.74181	0.00000	4731.61700
4.74565	0.00000	4740.19900
4.74949	0.00000	4740.19900
4.75334	0.00000	4740.19900
4.75717	0.00000	4740.19900
4.76100	0.00000	4740.19900
4.76484	0.00000	4740.19900
4.76867	0.00000	4742.81000
4.77250	0.00000	4742.81000
4.77633	0.00000	4742.81000
4.78016	0.00000	4742.81000
4.78399	0.00000	4742.81000
4.78783	0.00000	4742.81000
4.79166	0.00000	4737.13200
4.79549	0.00000	4737.13200
4.79933	0.00000	4737.13200
4.80317	0.00000	4737.13200
4.80701	0.00000	4737.13200
4.81085	0.00000	4737.13200
4.81470	0.00000	4742.64700
4.81853	0.00000	4742.64700
4.82238	0.00000	4742.64700
4.82622	0.00000	4742.64700
4.83006	0.00000	4742.64700
4.83389	0.00000	4742.64700
4.83772	0.00000	4737.13200
4.84155	0.00000	4737.13200
4.84538	0.00000	4737.13200
4.84921	0.00000	4737.13200
4.85304	0.00000	4737.13200
4.85687	0.00000	4734.65200
4.86072	0.00000	4734.65200
4.86455	0.00000	4734.65200
4.86838	0.00000	4734.65200
4.87222	0.00000	4734.65200
4.87604	0.00000	4734.65200
4.87988	0.00000	4731.61700
4.88370	0.00000	4731.61700
4.88754	0.00000	4731.61700
4.89132	0.00000	4731.61700
4.89515	0.00000	4731.61700
4.89897	0.00000	4731.61700
4.90282	0.00000	4737.13200
4.90666	0.00000	4737.13200
4.91049	0.00000	4737.13200
4.91433	0.00000	4737.13200
4.91815	0.00000	4737.13200
4.92198	0.00000	4737.13200
4.92581	0.00000	4745.57500
4.92965	0.00000	4745.57500
4.93349	0.00000	4745.57500
4.93732	0.00000	4745.57500
4.94115	0.00000	4745.57500
4.94499	0.00000	4731.87800
4.94883	0.00000	4731.87800
4.95266	0.00000	4731.87800
4.95649	0.00000	4731.87800
4.96032	0.00000	4731.87800
4.96414	0.00000	4731.87800
4.96797	0.00000	4737.42600
4.97180	0.00000	4737.42600
4.97563	0.00000	4737.42600
4.97947	0.00000	4737.42600
4.98331	0.00000	4737.42600
4.98714	0.00000	4737.42600
4.99097	0.00000	4726.10300
4.99480	0.00000	4726.10300
4.99862	0.00000	4726.10300
5.00301	0.00000	4726.10300
5.00688	0.00000	4726.10300
5.01074	0.00000	4726.10300
5.01458	0.00000	4728.86000
5.01843	0.00000	4728.86000
5.02228	0.00000	4728.86000
5.02612	0.00000	4728.86000
5.02996	0.00000	4728.86000
5.03385	0.00000	4842.39100
5.03771	0.00000	4842.39100
5.04160	0.00000	4842.39100
5.04543	0.00000	4842.39100
5.04926	0.00000	4842.39100
5.05310	0.00000	4842.39100
5.05694	0.00000	4842.39100
5.06077	0.00000	4935.73900
5.06460	0.00000	4935.73900
5.06845	0.00000	4935.73900
5.07229	0.00000	4935.73900
5.07612	0.00000	4935.73900
5.07995	0.00000	4935.73900
5.08378	0.00000	5010.33000
5.08762	0.00000	5010.33000
5.09144	0.00000	5010.33000
5.09529	0.00000	5010.33000
5.09915	0.00000	5010.33000
5.10301	0.00000	5010.33000
5.10687	0.00000	5063.51600
5.11073	0.00000	5063.51600
5.11457	0.00000	5063.51600
5.11841	0.00000	5063.51600
5.12226	0.00000	5063.51600
5.12610	0.00000	5063.51600
5.12994	0.00000	5128.52800
5.13378	0.00000	5128.52800
5.13762	0.00000	5128.52800
5.14147	0.00000	5128.52800
5.14530	0.00000	5128.52800
5.14914	0.00000	5128.52800
5.15298	0.00000	5128.52800
5.15683	0.00000	5167.44000
5.16068	0.00000	5167.44000
5.16453	0.00000	5167.44000
5.16837	0.00000	5167.44000
5.17222	0.00000	5167.44000
5.17606	0.00000	5167.44000
5.17990	0.00000	5184.69700
5.18373	0.00000	5184.69700
5.18757	0.00000	5184.69700
5.19141	0.00000	5184.69700
5.19524	0.00000	5184.69700
5.19908	0.00000	5184.69700
5.20292	0.00000	5184.69700
5.20676	0.00000	5212.69600
5.21060	0.00000	5212.69600
5.21444	0.00000	5212.69600
5.21828	0.00000	5212.69600
5.22211	0.00000	5212.69600
5.22595	0.00000	5212.69600
5.22978	0.00000	5239.69300
5.23362	0.00000	5239.69300
5.23745	0.00000	5239.69300
5.24128	0.00000	5239.69300
5.24512	0.00000	5239.69300
5.24897	0.00000	5239.69300
5.25280	0.00000	5239.69300
5.25663	0.00000	5236.39900
5.26047	0.00000	5236.39900
5.26431	0.00000	5236.39900
5.26816	0.00000	5236.39900
5.27200	0.00000	5236.39900
5.27585	0.00000	5236.39900
5.27967	0.00000	5257.30500
5.28351	0.00000	5257.30500
5.28733	0.00000	5257.30500
5.29116	0.00000	5257.30500
5.29500	0.00000	5257.30500
5.29884	0.00000	5257.30500
5.30267	0.00000	5257.30500
5.30651	0.00000	5258.67600
5.31035	0.00000	5258.67600
5.31419	0.00000	5258.67600
5.31803	0.00000	5258.67600
5.32187	0.00000	5258.67600
5.32571	0.00000	5258.67600
5.32954	0.00000	5273.74000
5.33340	0.00000	5273.74000
5.33723	0.00000	5273.74000
5.34107	0.00000	5273.74000
5.34492	0.00000	5273.74000
5.34875	0.00000	5273.74000
5.35260	0.00000	5273.74000
5.35644	0.00000	5276.44200
5.36028	0.00000	5276.44200
5.36412	0.00000	5276.44200
5.36796	0.00000	5276.44200
5.37181	0.00000	5276.44200
5.37566	0.00000	5276.44200
5.37950	0.00000	5284.31000
5.38333	0.00000	5284.31000
5.38716	0.00000	5284.31000
5.39100	0.00000	5284.31000
5.39484	0.00000	5284.31000
5.39868	0.00000	5284.31000
5.40252	0.00000	5284.31000
5.40635	0.00000	5285.18600
5.41020	0.00000	5285.18600
5.41403	0.00000	5285.18600
5.41788	0.00000	5285.18600
5.42171	0.00000	5285.18600
5.42556	0.00000	5285.18600
5.42940	0.00000	5285.18600
5.43324	0.00000	5289.32200
5.43708	0.00000	5289.32200
5.44092	0.00000	5289.32200
5.44476	0.00000	5289.32200
5.44859	0.00000	5289.32200
5.45243	0.00000	5289.32200
5.45626	0.00000	5292.41600
5.46010	0.00000	5292.41600
5.46395	0.00000	5292.41600
5.46778	0.00000	5292.41600
5.47162	0.00000	5292.41600
5.47546	0.00000	5292.41600
5.47931	0.00000	5292.41600
5.48316	0.00000	5301.31000
5.48702	0.00000	5301.31000
5.49085	0.00000	5301.31000
5.49469	0.00000	5301.31000
5.49853	0.00000	5301.31000
5.50237	0.00000	5301.31000
5.50621	0.00000	5301.31000
5.51004	0.00000	5295.67300
5.51387	0.00000	5295.67300
5.51771	0.00000	5295.67300
5.52154	0.00000	5295.67300
5.52539	0.00000	5295.67300
5.52923	0.00000	5295.67300
5.53307	0.00000	5290.86500
5.53690	0.00000	5290.86500
5.54075	0.00000	5290.86500
5.54459	0.00000	5290.86500
5.54843	0.00000	5290.86500
5.55226	0.00000	5290.86500
5.55610	0.00000	5290.86500
5.55994	0.00000	5294.96200
5.56377	0.00000	5294.96200
5.56762	0.00000	5294.96200
5.57147	0.00000	5294.96200
5.57531	0.00000	5294.96200
5.57917	0.00000	5294.96200
5.58300	0.00000	5306.87600
5.58684	0.00000	5306.87600
5.59067	0.00000	5306.87600
5.59451	0.00000	5306.87600
5.59834	0.00000	5306.87600
5.60220	0.00000	5306.87600
5.60603	0.00000	5306.87600
5.60986	0.00000	5291.71900
5.61370	0.00000	5291.71900
5.61753	0.00000	5291.71900
5.62136	0.00000	5291.71900
5.62519	0.00000	5291.71900
5.62903	0.00000	5291.71900
5.63286	0.00000	5291.71900
5.63670	0.00000	5297.35300
5.64053	0.00000	5297.35300
5.64436	0.00000	5297.35300
5.64821	0.00000	5297.35300
5.65204	0.00000	5297.35300
5.65587	0.00000	5297.35300
5.65972	0.00000	5290.86500
5.66355	0.00000	5290.86500
5.66738	0.00000	5290.86500
5.67122	0.00000	5290.86500
5.67506	0.00000	5290.86500
5.67890	0.00000	5290.86500
5.68273	0.00000	5290.86500
5.68656	0.00000	5292.57000
5.69040	0.00000	5292.57000
5.69424	0.00000	5292.57000
5.69807	0.00000	5292.57000
5.70191	0.00000	5292.57000
5.70576	0.00000	5292.57000
5.70959	0.00000	5292.57000
5.71342	0.00000	5302.88500
5.71726	0.00000	5302.88500
5.72110	0.00000	5302.88500
5.72493	0.00000	5302.88500
5.72877	0.00000	5302.88500
5.73260	0.00000	5302.88500
5.73644	0.00000	5306.87600
5.74027	0.00000	5306.87600
5.74411	0.00000	5306.87600
5.74795	0.00000	5306.87600
5.75180	0.00000	5306.87600
5.75564	0.00000	5306.87600
5.75948	0.00000	5306.87600
5.76333	0.00000	5306.10600
5.76717	0.00000	5306.10600
5.77102	0.00000	5306.10600
5.77484	0.00000	5306.10600
5.77867	0.00000	5306.10600
5.78250	0.00000	5306.10600
5.78634	0.00000	5290.86500
5.79017	0.00000	5290.86500
5.79401	0.00000	5290.86500
5.79786	0.00000	5290.86500
5.80169	0.00000	5290.86500
5.80553	0.00000	5290.86500
5.80937	0.00000	5290.86500
5.81320	0.00000	5302.88500
5.81704	0.00000	5302.88500
5.82087	0.00000	5302.88500
5.82471	0.00000	5302.88500
5.82855	0.00000	5302.88500
5.83239	0.00000	5302.88500
5.83622	0.00000	5302.88500
5.84006	0.00000	5297.35300
5.84390	0.00000	5297.35300
5.84774	0.00000	5297.35300
5.85158	0.00000	5297.35300
5.85541	0.00000	5297.35300
5.85924	0.00000	5297.35300
5.86308	0.00000	5288.46100
5.86693	0.00000	5288.46100
5.87077	0.00000	5288.46100
5.87460	0.00000	5288.46100
5.87845	0.00000	5288.46100
5.88228	0.00000	5288.46100
5.88611	0.00000	5288.46100
5.88996	0.00000	5290.17800
5.89380	0.00000	5290.17800
5.89764	0.00000	5290.17800
5.90147	0.00000	5290.17800
5.90532	0.00000	5290.17800
5.90915	0.00000	5290.17800
5.91298	0.00000	5290.17800
5.91681	0.00000	5298.91300
5.92066	0.00000	5298.91300
5.92449	0.00000	5298.91300
5.92833	0.00000	5298.91300
5.93217	0.00000	5298.91300
5.93600	0.00000	5298.91300
5.93985	0.00000	5299.64600
5.94368	0.00000	5299.64600
5.94752	0.00000	5299.64600
5.95133	0.00000	5299.64600
5.95516	0.00000	5299.64600
5.95900	0.00000	5299.64600
5.96285	0.00000	5299.64600
5.96670	0.00000	5310.90200
5.97053	0.00000	5310.90200
5.97436	0.00000	5310.90200
5.97819	0.00000	5310.90200
5.98204	0.00000	5310.90200
5.98588	0.00000	5310.90200
5.98971	0.00000	5293.26900
5.99353	0.00000	5293.26900
5.99736	0.00000	5293.26900
6.00119	0.00000	5293.26900
6.00504	0.00000	5293.26900
6.00887	0.00000	5293.26900
6.01271	0.00000	5293.26900
6.01655	0.00000	5293.26900
6.02039	0.00000	5293.26900
6.02422	0.00000	5293.26900
6.02806	0.00000	5293.26900
6.03189	0.00000	5293.26900
6.03573	0.00000	5293.26900
6.03958	0.00000	5293.26900
6.04343	0.00000	5308.50400
6.04727	0.00000	5308.50400
6.05112	0.00000	5308.50400
6.05496	0.00000	5308.50400
6.05879	0.00000	5308.50400
6.06263	0.00000	5308.50400
6.06646	0.00000	5295.67300
6.07031	0.00000	5295.67300
6.07415	0.00000	5295.67300
6.07799	0.00000	5295.67300
6.08184	0.00000	5295.67300
6.08568	0.00000	5295.67300
6.08951	0.00000	5295.67300
6.09335	0.00000	5290.17800
6.09719	0.00000	5290.17800
6.10103	0.00000	5290.17800
6.10486	0.00000	5290.17800
6.10869	0.00000	5290.17800
6.11253	0.00000	5290.17800
6.11638	0.00000	5290.17800
6.12022	0.00000	5298.91300
6.12408	0.00000	5298.91300
6.12792	0.00000	5298.91300
6.13175	0.00000	5298.91300
6.13560	0.00000	5298.91300
6.13943	0.00000	5298.91300
6.14328	0.00000	5309.28600
6.14712	0.00000	5309.28600
6.15096	0.00000	5309.28600
6.15480	0.00000	5309.28600
6.15864	0.00000	5309.28600
6.16248	0.00000	5309.28600
6.16631	0.00000	5309.28600
6.17016	0.00000	5297.35300
6.17398	0.00000	5297.35300
6.17783	0.00000	5297.35300
6.18167	0.00000	5297.35300
6.18550	0.00000	5297.35300
6.18934	0.00000	5297.35300
6.19319	0.00000	5288.46100
6.19701	0.00000	5288.46100
6.20086	0.00000	5288.46100
6.20469	0.00000	5288.46100
6.20852	0.00000	5288.46100
6.21236	0.00000	5288.46100
6.21620	0.00000	5288.46100
6.22004	0.00000	5302.88500
6.22388	0.00000	5302.88500
6.22772	0.00000	5302.88500
6.23155	0.00000	5302.88500
6.23539	0.00000	5302.88500
6.23922	0.00000	5302.88500
6.24307	0.00000	5302.88500
6.24692	0.00000	5299.74500
6.25076	0.00000	5299.74500
6.25459	0.00000	5299.74500
6.25843	0.00000	5299.74500
6.26226	0.00000	5299.74500
6.26610	0.00000	5299.74500
6.26994	0.00000	5309.28600
6.27381	0.00000	5309.28600
6.27764	0.00000	5309.28600
6.28148	0.00000	5309.28600
6.28531	0.00000	5309.28600
6.28915	0.00000	5309.28600
6.29299	0.00000	5309.28600
6.29682	0.00000	5299.74500
6.30065	0.00000	5299.74500
6.30449	0.00000	5299.74500
6.30833	0.00000	5299.74500
6.31217	0.00000	5299.74500
6.31601	0.00000	5299.74500
6.31987	0.00000	5299.74500
6.32371	0.00000	5299.74500
6.32755	0.00000	5299.74500
6.33139	0.00000	5299.74500
6.33524	0.00000	5299.74500
6.33908	0.00000	5299.74500
6.34291	0.00000	5299.74500
6.34675	0.00000	5293.26900
6.35060	0.00000	5293.26900
6.35445	0.00000	5293.26900
6.35828	0.00000	5293.26900
6.36213	0.00000	5293.26900
6.36597	0.00000	5293.26900
6.36981	0.00000	5293.26900
6.37365	0.00000	5288.64500
6.37749	0.00000	5288.64500
6.38133	0.00000	5288.64500
6.38516	0.00000	5288.64500
6.38900	0.00000	5288.64500
6.39284	0.00000	5288.64500
6.39668	0.00000	5288.64500
6.40050	0.00000	5291.71900
6.40434	0.00000	5291.71900
6.40818	0.00000	5291.71900
6.41203	0.00000	5291.71900
6.41588	0.00000	5291.71900
6.41971	0.00000	5291.71900
6.42355	0.00000	5295.67300
6.42739	0.00000	5295.67300
6.43123	0.00000	5295.67300
6.43506	0.00000	5295.67300
6.43890	0.00000	5295.67300
6.44274	0.00000	5295.67300
6.44657	0.00000	5295.67300
6.45041	0.00000	5291.03100
6.45424	0.00000	5291.03100
6.45807	0.00000	5291.03100
6.46192	0.00000	5291.03100
6.46574	0.00000	5291.03100
6.46959	0.00000	5291.03100
6.47343	0.00000	5300.48100
6.47728	0.00000	5300.48100
6.48111	0.00000	5300.48100
6.48495	0.00000	5300.48100
6.48879	0.00000	5300.48100
6.49262	0.00000	5300.48100
6.49645	0.00000	5300.48100
6.50030	0.00000	5303.70800
6.50414	0.00000	5303.70800
6.50798	0.00000	5303.70800
6.51182	0.00000	5303.70800
6.51567	0.00000	5303.70800
6.51951	0.00000	5303.70800
6.52333	0.00000	5303.70800
6.52716	0.00000	5299.74500
6.53100	0.00000	5299.74500
6.53484	0.00000	5299.74500
6.53868	0.00000	5299.74500
6.54252	0.00000	5299.74500
6.54635	0.00000	5299.74500
6.55019	0.00000	5314.10600
6.55402	0.00000	5314.10600
6.55786	0.00000	5314.10600
6.56170	0.00000	5314.10600
6.56555	0.00000	5314.10600
6.56938	0.00000	5314.10600
6.57321	0.00000	5314.10600
6.57705	0.00000	5304.52800
6.58089	0.00000	5304.52800
6.58472	0.00000	5304.52800
6.58856	0.00000	5304.52800
6.59240	0.00000	5304.52800
6.59623	0.00000	5304.52800
6.60008	0.00000	5304.52800
6.60390	0.00000	5306.10600
6.60775	0.00000	5306.10600
6.61158	0.00000	5306.10600
6.61542	0.00000	5306.10600
6.61926	0.00000	5306.10600
6.62310	0.00000	5306.10600
6.62694	0.00000	5300.48100
6.63079	0.00000	5300.48100
6.63464	0.00000	5300.48100
6.63847	0.00000	5300.48100
6.64230	0.00000	5300.48100
6.64613	0.00000	5300.48100
6.64997	0.00000	5300.48100
6.65382	0.00000	5302.13600
6.65766	0.00000	5302.13600
6.66150	0.00000	5302.13600
6.66533	0.00000	5302.13600
6.66918	0.00000	5302.13600
6.67302	0.00000	5302.13600
6.67686	0.00000	5298.07600
6.68069	0.00000	5298.07600
6.68452	0.00000	5298.07600
6.68837	0.00000	5298.07600
6.69221	0.00000	5298.07600
6.69605	0.00000	5298.07600
6.69988	0.00000	5298.07600
6.70373	0.00000	5302.88500
6.70757	0.00000	5302.88500
6.71142	0.00000	5302.88500
6.71526	0.00000	5302.88500
6.71910	0.00000	5302.88500
6.72295	0.00000	5302.88500
6.72678	0.00000	5302.88500
6.73063	0.00000	5310.90200
6.73447	0.00000	5310.90200
6.73832	0.00000	5310.90200
6.74216	0.00000	5310.90200
6.74599	0.00000	5310.90200
6.74983	0.00000	5310.90200
6.75366	0.00000	5295.67300
6.75752	0.00000	5295.67300
6.76135	0.00000	5295.67300
6.76520	0.00000	5295.67300
6.76903	0.00000	5295.67300
6.77287	0.00000	5295.67300
6.77671	0.00000	5295.67300
6.78054	0.00000	5294.96200
6.78438	0.00000	5294.96200
6.78823	0.00000	5294.96200
6.79208	0.00000	5294.96200
6.79592	0.00000	5294.96200
6.79976	0.00000	5294.96200
6.80359	0.00000	5294.96200
6.80743	0.00000	5298.91300
6.81126	0.00000	5298.91300
6.81509	0.00000	5298.91300
6.81893	0.00000	5298.91300
6.82278	0.00000	5298.91300
6.82661	0.00000	5298.91300
6.83044	0.00000	5299.64600
6.83428	0.00000	5299.64600
6.83812	0.00000	5299.64600
6.84196	0.00000	5299.64600
6.84579	0.00000	5299.64600
6.84963	0.00000	5299.64600
6.85346	0.00000	5299.64600
6.85732	0.00000	5292.57000
6.86116	0.00000	5292.57000
6.86499	0.00000	5292.57000
6.86884	0.00000	5292.57000
6.87268	0.00000	5292.57000
6.87652	0.00000	5292.57000
6.88036	0.00000	5290.86500
6.88418	0.00000	5290.86500
6.88802	0.00000	5290.86500
6.89185	0.00000	5290.86500
6.89570	0.00000	5290.86500
6.89954	0.00000	5290.86500
6.90338	0.00000	5290.86500
6.90722	0.00000	5295.67300
6.91106	0.00000	5295.67300
6.91489	0.00000	5295.67300
6.91872	0.00000	5295.67300
6.92255	0.00000	5295.67300
6.92639	0.00000	5295.67300
6.93023	0.00000	5295.67300
6.93407	0.00000	5306.10600
6.93790	0.00000	5306.10600
6.94174	0.00000	5306.10600
6.94557	0.00000	5306.10600
6.94941	0.00000	5306.10600
6.95325	0.00000	5306.10600
6.95709	0.00000	5302.05600
6.96095	0.00000	5302.05600
6.96478	0.00000	5302.05600
6.96863	0.00000	5302.05600
6.97247	0.00000	5302.05600
6.97631	0.00000	5302.05600
6.98015	0.00000	5302.05600
6.98397	0.00000	5294.96200
6.98782	0.00000	5294.96200
6.99167	0.00000	5294.96200
6.99551	0.00000	5294.96200
6.99933	0.00000	5294.96200
7.00316	0.00000	5294.96200
7.00700	0.00000	5294.96200
7.01084	0.00000	5287.78700
7.01468	0.00000	5287.78700
7.01851	0.00000	5287.78700
7.02236	0.00000	5287.78700
7.02619	0.00000	5287.78700
7.03003	0.00000	5287.78700
7.03387	0.00000	5294.82600
7.03770	0.00000	5294.82600
7.04154	0.00000	5294.82600
7.04538	0.00000	5294.82600
7.04922	0.00000	5294.82600
7.05306	0.00000	5294.82600
7.05689	0.00000	5294.82600
7.06073	0.00000	5285.39500
7.06458	0.00000	5285.39500
7.06841	0.00000	5285.39500
7.07225	0.00000	5285.39500
7.07610	0.00000	5285.39500
7.07995	0.00000	5285.39500
7.08379	0.00000	5290.86500
7.08761	0.00000	5290.86500
7.09144	0.00000	5290.86500
7.09529	0.00000	5290.86500
7.09913	0.00000	5290.86500
7.10299	0.00000	5290.86500
7.10682	0.00000	5290.86500
7.11067	0.00000	5298.07600
7.11451	0.00000	5298.07600
7.11835	0.00000	5298.07600
7.12220	0.00000	5298.07600
7.12603	0.00000	5298.07600
7.12986	0.00000	5298.07600
7.13369	0.00000	5298.07600
7.13754	0.00000	5294.96200
7.14138	0.00000	5294.96200
7.14522	0.00000	5294.96200
7.14905	0.00000	5294.96200
7.15289	0.00000	5294.96200
7.15674	0.00000	5294.96200
7.16057	0.00000	5293.26900
7.16441	0.00000	5293.26900
7.16824	0.00000	5293.26900
7.17210	0.00000	5293.26900
7.17593	0.00000	5293.26900
7.17978	0.00000	5293.26900
7.18362	0.00000	5293.26900
7.18748	0.00000	5290.17800
7.19132	0.00000	5290.17800
7.19516	0.00000	5290.17800
7.19901	0.00000	5290.17800
7.20284	0.00000	5290.17800
7.20669	0.00000	5290.17800
7.21052	0.00000	5290.17800
7.21435	0.00000	5294.11700
7.21820	0.00000	5294.11700
7.22204	0.00000	5294.11700
7.22588	0.00000	5294.11700
7.22971	0.00000	5294.11700
7.23356	0.00000	5294.11700
7.23739	0.00000	5299.64600
7.24124	0.00000	5299.64600
7.24509	0.00000	5299.64600
7.24892	0.00000	5299.64600
7.25276	0.00000	5299.64600
7.25660	0.00000	5299.64600
7.26043	0.00000	5299.64600
7.26427	0.00000	5297.35300
7.26811	0.00000	5297.35300
7.27196	0.00000	5297.35300
7.27580	0.00000	5297.35300
7.27964	0.00000	5297.35300
7.28348	0.00000	5297.35300
7.28733	0.00000	5293.26900
7.29115	0.00000	5293.26900
7.29499	0.00000	5293.26900
7.29882	0.00000	5293.26900
7.30265	0.00000	5293.26900
7.30649	0.00000	5293.26900
7.31034	0.00000	5293.26900
7.31419	0.00000	5300.48100
7.31805	0.00000	5300.48100
7.32190	0.00000	5300.48100
7.32573	0.00000	5300.48100
7.32957	0.00000	5300.48100
7.33341	0.00000	5300.48100
7.33725	0.00000	5300.48100
7.34109	0.00000	5294.96200
7.34491	0.00000	5294.96200
7.34875	0.00000	5294.96200
7.35258	0.00000	5294.96200
7.35643	0.00000	5294.96200
7.36026	0.00000	5294.96200
7.36409	0.00000	5293.26900
7.36795	0.00000	5293.26900
7.37180	0.00000	5293.26900
7.37564	0.00000	5293.26900
7.37947	0.00000	5293.26900
7.38331	0.00000	5293.26900
7.38716	0.00000	5293.26900
7.39100	0.00000	5299.74500
7.39483	0.00000	5299.74500
7.39866	0.00000	5299.74500
7.40252	0.00000	5299.74500
7.40636	0.00000	5299.74500
7.41020	0.00000	5299.74500
7.41403	0.00000	5299.74500
7.41788	0.00000	5301.31000
7.42172	0.00000	5301.31000
7.42557	0.00000	5301.31000
7.42940	0.00000	5301.31000
7.43325	0.00000	5301.31000
7.43708	0.00000	5301.31000
7.44093	0.00000	5288.46100
7.44477	0.00000	5288.46100
7.44861	0.00000	5288.46100
7.45244	0.00000	5288.46100
7.45629	0.00000	5288.46100
7.46013	0.00000	5288.46100
7.46397	0.00000	5288.46100
7.46782	0.00000	5287.78700
7.47166	0.00000	5287.78700
7.47549	0.00000	5287.78700
7.47933	0.00000	5287.78700
7.48316	0.00000	5287.78700
7.48700	0.00000	5287.78700
7.49083	0.00000	5293.26900
7.49468	0.00000	5293.26900
7.49852	0.00000	5293.26900
7.50235	0.00000	5293.26900
7.50620	0.00000	5293.26900
7.51005	0.00000	5293.26900
7.51390	0.00000	5293.26900
7.51774	0.00000	5289.32200
7.52158	0.00000	5289.32200
7.52544	0.00000	5289.32200
7.52930	0.00000	5289.32200
7.53317	0.00000	5289.32200
7.53702	0.00000	5289.32200
7.54086	0.00000	5289.32200
7.54469	0.00000	5290.17800
7.54853	0.00000	5290.17800
7.55236	0.00000	5290.17800
7.55619	0.00000	5290.17800
7.56003	0.00000	5290.17800
7.56386	0.00000	5290.17800
7.56771	0.00000	5293.26900
7.57157	0.00000	5293.26900
7.57540	0.00000	5293.26900
7.57924	0.00000	5293.26900
7.58308	0.00000	5293.26900
7.58692	0.00000	5293.26900
7.59076	0.00000	5293.26900
7.59460	0.00000	5310.90200
7.59843	0.00000	5310.90200
7.60226	0.00000	5310.90200
7.60611	0.00000	5310.90200
7.60994	0.00000	5310.90200
7.61378	0.00000	5310.90200
7.61762	0.00000	5310.90200
7.62145	0.00000	5289.32200
7.62529	0.00000	5289.32200
7.62914	0.00000	5289.32200
7.63298	0.00000	5289.32200
7.63683	0.00000	5289.32200
7.64066	0.00000	5289.32200
7.64451	0.00000	5302.05600
7.64836	0.00000	5302.05600
7.65219	0.00000	5302.05600
7.65603	0.00000	5302.05600
7.65986	0.00000	5302.05600
7.66370	0.00000	5302.05600
7.66755	0.00000	5302.05600
7.67140	0.00000	5306.10600
7.67523	0.00000	5306.10600
7.67907	0.00000	5306.10600
7.68293	0.00000	5306.10600
7.68677	0.00000	5306.10600
7.69062	0.00000	5306.10600
7.69445	0.00000	5290.86500
7.69835	0.00000	5290.86500
7.70218	0.00000	5290.86500
7.70602	0.00000	5290.86500
7.70986	0.00000	5290.86500
7.71369	0.00000	5290.86500
7.71754	0.00000	5290.86500
7.72137	0.00000	5290.17800
7.72520	0.00000	5290.17800
7.72904	0.00000	5290.17800
7.73288	0.00000	5290.17800
7.73671	0.00000	5290.17800
7.74056	0.00000	5290.17800
7.74440	0.00000	5290.17800
7.74825	0.00000	5294.96200
7.75210	0.00000	5294.96200
7.75593	0.00000	5294.96200
7.75978	0.00000	5294.96200
7.76362	0.00000	5294.96200
7.76745	0.00000	5294.96200
7.77128	0.00000	5304.46700
7.77513	0.00000	5304.46700
7.77897	0.00000	5304.46700
7.78281	0.00000	5304.46700
7.78664	0.00000	5304.46700
7.79048	0.00000	5304.46700
7.79432	0.00000	5304.46700
7.79816	0.00000	5290.17800
7.80200	0.00000	5290.17800
7.80584	0.00000	5290.17800
7.80967	0.00000	5290.17800
7.81351	0.00000	5290.17800
7.81735	0.00000	5290.17800
7.82118	0.00000	5290.17800
7.82501	0.00000	5302.88500
7.82886	0.00000	5302.88500
7.83270	0.00000	5302.88500
7.83653	0.00000	5302.88500
7.84037	0.00000	5302.88500
7.84420	0.00000	5302.88500
7.84804	0.00000	5304.46700
7.85187	0.00000	5304.46700
7.85570	0.00000	5304.46700
7.85954	0.00000	5304.46700
7.86333	0.00000	5304.46700
7.86716	0.00000	5304.46700
7.87099	0.00000	5304.46700
7.87481	0.00000	5290.17800
7.87864	0.00000	5290.17800
7.88247	0.00000	5290.17800
7.88630	0.00000	5290.17800
7.89012	0.00000	5290.17800
7.89397	0.00000	5290.17800
7.89780	0.00000	5290.86500
7.90163	0.00000	5290.86500
7.90546	0.00000	5290.86500
7.90927	0.00000	5290.86500
7.91311	0.00000	5290.86500
7.91693	0.00000	5290.86500
7.92077	0.00000	5290.86500
7.92459	0.00000	5300.48100
7.92841	0.00000	5300.48100
7.93224	0.00000	5300.48100
7.93607	0.00000	5300.48100
7.93989	0.00000	5300.48100
7.94372	0.00000	5300.48100
7.94756	0.00000	5300.48100
7.95142	0.00000	5303.70800
7.95525	0.00000	5303.70800
7.95909	0.00000	5303.70800
7.96293	0.00000	5303.70800
7.96678	0.00000	5303.70800
7.97061	0.00000	5303.70800
7.97444	0.00000	5290.86500
7.97829	0.00000	5290.86500
7.98214	0.00000	5290.86500
7.98598	0.00000	5290.86500
7.98981	0.00000	5290.86500
7.99365	0.00000	5290.86500
7.99750	0.00000	5290.86500
8.00134	0.00000	5294.96200
8.00517	0.00000	5294.96200
8.00901	0.00000	5294.96200
8.01286	0.00000	5294.96200
8.01670	0.00000	5294.96200
8.02056	0.00000	5294.96200
8.02439	0.00000	5294.96200
8.02824	0.00000	5283.00400
8.03207	0.00000	5283.00400
8.03590	0.00000	5283.00400
8.03975	0.00000	5283.00400
8.04359	0.00000	5283.00400
8.04743	0.00000	5283.00400
8.05126	0.00000	5304.46700
8.05510	0.00000	5304.46700
8.05894	0.00000	5304.46700
8.06277	0.00000	5304.46700
8.06661	0.00000	5304.46700
8.07045	0.00000	5304.46700
8.07430	0.00000	5304.46700
8.07813	0.00000	5308.50400
8.08197	0.00000	5308.50400
8.08580	0.00000	5308.50400
8.08964	0.00000	5308.50400
8.09347	0.00000	5308.50400
8.09731	0.00000	5308.50400
8.10115	0.00000	5299.64600
8.10498	0.00000	5299.64600
8.10885	0.00000	5299.64600
8.11270	0.00000	5299.64600
8.11655	0.00000	5299.64600
8.12040	0.00000	5299.64600
8.12424	0.00000	5299.64600
8.12807	0.00000	5295.67300
8.13190	0.00000	5295.67300
8.13576	0.00000	5295.67300
8.13959	0.00000	5295.67300
8.14344	0.00000	5295.67300
8.14728	0.00000	5295.67300
8.15113	0.00000	5295.67300
8.15497	0.00000	5287.78700
8.15881	0.00000	5287.78700
8.16265	0.00000	5287.78700
8.16648	0.00000	5287.78700
8.17032	0.00000	5287.78700
8.17417	0.00000	5287.78700
8.17800	0.00000	5290.86500
8.18187	0.00000	5290.86500
8.18571	0.00000	5290.86500
8.18954	0.00000	5290.86500
8.19339	0.00000	5290.86500
8.19723	0.00000	5290.86500
8.20110	0.00000	5290.86500
8.20493	0.00000	5290.17800
8.20877	0.00000	5290.17800
8.21260	0.00000	5290.17800
8.21643	0.00000	5290.17800
8.22027	0.00000	5290.17800
8.22411	0.00000	5290.17800
8.22795	0.00000	5290.17800
8.23178	0.00000	5300.48100
8.23562	0.00000	5300.48100
8.23946	0.00000	5300.48100
8.24329	0.00000	5300.48100
8.24713	0.00000	5300.48100
8.25098	0.00000	5300.48100
8.25482	0.00000	5288.46100
8.25866	0.00000	5288.46100
8.26249	0.00000	5288.46100
8.26634	0.00000	5288.46100
8.27016	0.00000	5288.46100
8.27401	0.00000	5288.46100
8.27784	0.00000	5288.46100
8.28167	0.00000	5292.57000
8.28551	0.00000	5292.57000
8.28936	0.00000	5292.57000
8.29321	0.00000	5292.57000
8.29706	0.00000	5292.57000
8.30089	0.00000	5292.57000
8.30474	0.00000	5304.46700
8.30858	0.00000	5304.46700
8.31242	0.00000	5304.46700
8.31626	0.00000	5304.46700
8.32011	0.00000	5304.46700
8.32395	0.00000	5304.46700
8.32778	0.00000	5304.46700
8.33161	0.00000	5291.71900
8.33545	0.00000	5291.71900
8.33929	0.00000	5291.71900
8.34314	0.00000	5291.71900
8.34697	0.00000	5291.71900
8.35081	0.00000	5291.71900
8.35465	0.00000	5291.71900
8.35848	0.00000	5294.96200
8.36233	0.00000	5294.96200
8.36618	0.00000	5294.96200
8.37001	0.00000	5294.96200
8.37386	0.00000	5294.96200
8.37770	0.00000	5294.96200
8.38154	0.00000	5302.05600
8.38538	0.00000	5302.05600
8.38923	0.00000	5302.05600
8.39306	0.00000	5302.05600
8.39690	0.00000	5302.05600
8.40073	0.00000	5302.05600
8.40457	0.00000	5302.05600
8.40841	0.00000	5303.70800
8.41225	0.00000	5303.70800
8.41610	0.00000	5303.70800
8.41993	0.00000	5303.70800
8.42376	0.00000	5303.70800
8.42761	0.00000	5303.70800
8.43144	0.00000	5303.70800
8.43527	0.00000	5295.67300
8.43910	0.00000	5295.67300
8.44293	0.00000	5295.67300
8.44677	0.00000	5295.67300
8.45060	0.00000	5295.67300
8.45444	0.00000	5295.67300
8.45828	0.00000	5286.05700
8.46213	0.00000	5286.05700
8.46597	0.00000	5286.05700
8.46981	0.00000	5286.05700
8.47365	0.00000	5286.05700
8.47749	0.00000	5286.05700
8.48132	0.00000	5286.05700
8.48516	0.00000	5292.57000
8.48899	0.00000	5292.57000
8.49283	0.00000	5292.57000
8.49667	0.00000	5292.57000
8.50050	0.00000	5292.57000
8.50435	0.00000	5292.57000
8.50822	0.00000	5306.87600
8.51207	0.00000	5306.87600
8.51590	0.00000	5306.87600
8.51975	0.00000	5306.87600
8.52359	0.00000	5306.87600
8.52743	0.00000	5306.87600
8.53127	0.00000	5306.87600
8.53510	0.00000	5298.91300
8.53894	0.00000	5298.91300
8.54277	0.00000	5298.91300
8.54660	0.00000	5298.91300
8.55044	0.00000	5298.91300
8.55427	0.00000	5298.91300
8.55811	0.00000	5298.91300
8.56194	0.00000	5301.31000
8.56578	0.00000	5301.31000
8.56962	0.00000	5301.31000
8.57346	0.00000	5301.31000
8.57730	0.00000	5301.31000
8.58114	0.00000	5301.31000
8.58498	0.00000	5302.05600
8.58882	0.00000	5302.05600
8.59266	0.00000	5302.05600
8.59650	0.00000	5302.05600
8.60033	0.00000	5302.05600
8.60417	0.00000	5302.05600
8.60800	0.00000	5302.05600
8.61185	0.00000	5290.17800
8.61569	0.00000	5290.17800
8.61953	0.00000	5290.17800
8.62333	0.00000	5290.17800
8.62716	0.00000	5290.17800
8.63100	0.00000	5290.17800
8.63483	0.00000	5290.17800
8.63867	0.00000	5295.67300
8.64251	0.00000	5295.67300
8.64634	0.00000	5295.67300
8.65018	0.00000	5295.67300
8.65402	0.00000	5295.67300
8.65785	0.00000	5295.67300
8.66169	0.00000	5299.64600
8.66552	0.00000	5299.64600
8.66935	0.00000	5299.64600
8.67320	0.00000	5299.64600
8.67703	0.00000	5299.64600
8.68087	0.00000	5299.64600
8.68471	0.00000	5299.64600
8.68855	0.00000	5306.10600
8.69240	0.00000	5306.10600
8.69623	0.00000	5306.10600
8.70007	0.00000	5306.10600
8.70391	0.00000	5306.10600
8.70774	0.00000	5306.10600
8.71158	0.00000	5304.46700
8.71543	0.00000	5304.46700
8.71928	0.00000	5304.46700
8.72312	0.00000	5304.46700
8.72696	0.00000	5304.46700
8.73080	0.00000	5304.46700
8.73464	0.00000	5304.46700
8.73847	0.00000	5305.28800
8.74231	0.00000	5305.28800
8.74615	0.00000	5305.28800
8.74999	0.00000	5305.28800
8.75383	0.00000	5305.28800
8.75767	0.00000	5305.28800
8.76152	0.00000	5305.28800
8.76536	0.00000	5306.10600
8.76921	0.00000	5306.10600
8.77304	0.00000	5306.10600
8.77688	0.00000	5306.10600
8.78072	0.00000	5306.10600
8.78456	0.00000	5306.10600
8.78840	0.00000	5299.64600
8.79223	0.00000	5299.64600
8.79608	0.00000	5299.64600
8.79992	0.00000	5299.64600
8.80375	0.00000	5299.64600
8.80758	0.00000	5299.64600
8.81141	0.00000	5299.64600
8.81524	0.00000	5298.91300
8.81908	0.00000	5298.91300
8.82292	0.00000	5298.91300
8.82675	0.00000	5298.91300
8.83059	0.00000	5298.91300
8.83444	0.00000	5298.91300
8.83827	0.00000	5298.91300
8.84210	0.00000	5288.46100
8.84593	0.00000	5288.46100
8.84977	0.00000	5288.46100
8.85360	0.00000	5288.46100
8.85743	0.00000	5288.46100
8.86127	0.00000	5288.46100
8.86511	0.00000	5302.05600
8.86894	0.00000	5302.05600
8.87278	0.00000	5302.05600
8.87662	0.00000	5302.05600
8.88046	0.00000	5302.05600
8.88429	0.00000	5302.05600
8.88815	0.00000	5302.05600
8.89198	0.00000	5290.17800
8.89582	0.00000	5290.17800
8.89966	0.00000	5290.17800
8.90351	0.00000	5290.17800
8.90733	0.00000	5290.17800
8.91117	0.00000	5290.17800
8.91500	0.00000	5290.86500
8.91885	0.00000	5290.86500
8.92269	0.00000	5290.86500
8.92653	0.00000	5290.86500
8.93039	0.00000	5290.86500
8.93423	0.00000	5290.86500
8.93807	0.00000	5290.86500
8.94191	0.00000	5285.39500
8.94574	0.00000	5285.39500
8.94958	0.00000	5285.39500
8.95342	0.00000	5285.39500
8.95726	0.00000	5285.39500
8.96109	0.00000	5285.39500
8.96493	0.00000	5285.39500
8.96876	0.00000	5291.71900
8.97259	0.00000	5291.71900
8.97643	0.00000	5291.71900
8.98026	0.00000	5291.71900
8.98411	0.00000	5291.71900
8.98794	0.00000	5291.71900
8.99178	0.00000	5294.82600
8.99562	0.00000	5294.82600
8.99946	0.00000	5294.82600
9.00330	0.00000	5294.82600
9.00715	0.00000	5294.82600
9.01099	0.00000	5294.82600
9.01482	0.00000	5294.82600
9.01866	0.00000	5294.11700
9.02250	0.00000	5294.11700
9.02633	0.00000	5294.11700
9.03017	0.00000	5294.11700
9.03401	0.00000	5294.11700
9.03786	0.00000	5294.11700
9.04169	0.00000	5294.82600
9.04552	0.00000	5294.82600
9.04936	0.00000	5294.82600
9.05320	0.00000	5294.82600
9.05704	0.00000	5294.82600
9.06088	0.00000	5294.82600
9.06472	0.00000	5294.82600
9.06856	0.00000	5286.05700
9.07239	0.00000	5286.05700
9.07622	0.00000	5286.05700
9.08005	0.00000	5286.05700
9.08390	0.00000	5286.05700
9.08774	0.00000	5286.05700
9.09158	0.00000	5286.05700
9.09542	0.00000	5289.32200
9.09928	0.00000	5289.32200
9.10312	0.00000	5289.32200
9.10696	0.00000	5289.32200
9.11081	0.00000	5289.32200
9.11466	0.00000	5289.32200
9.11851	0.00000	5301.22400
9.12237	0.00000	5301.22400
9.12620	0.00000	5301.22400
9.13005	0.00000	5301.22400
9.13389	0.00000	5301.22400
9.13773	0.00000	5301.22400
9.14157	0.00000	5301.22400
9.14541	0.00000	5284.52700
9.14925	0.00000	5284.52700
9.15308	0.00000	5284.52700
9.15692	0.00000	5284.52700
9.16076	0.00000	5284.52700
9.16459	0.00000	5284.52700
9.16842	0.00000	5284.52700
9.17226	0.00000	5283.65400
9.17609	0.00000	5283.65400
9.17992	0.00000	5283.65400
9.18376	0.00000	5283.65400
9.18759	0.00000	5283.65400
9.19144	0.00000	5283.65400
9.19527	0.00000	5290.00600
9.19914	0.00000	5290.00600
9.20298	0.00000	5290.00600
9.20683	0.00000	5290.00600
9.21067	0.00000	5290.00600
9.21451	0.00000	5290.00600
9.21834	0.00000	5290.00600
9.22219	0.00000	5294.11700
9.22604	0.00000	5294.11700
9.22988	0.00000	5294.11700
9.23371	0.00000	5294.11700
9.23756	0.00000	5294.11700
9.24139	0.00000	5294.11700
9.24524	0.00000	5301.22400
9.24907	0.00000	5301.22400
9.25292	0.00000	5301.22400
9.25675	0.00000	5301.22400
9.26059	0.00000	5301.22400
9.26443	0.00000	5301.22400
9.26827	0.00000	5301.22400
9.27211	0.00000	5294.11700
9.27596	0.00000	5294.11700
9.27981	0.00000	5294.11700
9.28365	0.00000	5294.11700
9.28749	0.00000	5294.11700
9.29132	0.00000	5294.11700
9.29516	0.00000	5294.11700
9.29900	0.00000	5298.07600
9.30283	0.00000	5298.07600
9.30666	0.00000	5298.07600
9.31050	0.00000	5298.07600
9.31434	0.00000	5298.07600
9.31816	0.00000	5298.07600
9.32200	0.00000	5287.59600
9.32583	0.00000	5287.59600
9.32966	0.00000	5287.59600
9.33351	0.00000	5287.59600
9.33735	0.00000	5287.59600
9.34119	0.00000	5287.59600
9.34503	0.00000	5287.59600
9.34888	0.00000	5286.92400
9.35272	0.00000	5286.92400
9.35655	0.00000	5286.92400
9.36040	0.00000	5286.92400
9.36424	0.00000	5286.92400
9.36808	0.00000	5286.92400
9.37192	0.00000	5282.77600
9.37576	0.00000	5282.77600
9.37960	0.00000	5282.77600
9.38343	0.00000	5282.77600
9.38727	0.00000	5282.77600
9.39110	0.00000	5282.77600
9.39493	0.00000	5282.77600
9.39877	0.00000	5286.05700
9.40261	0.00000	5286.05700
9.40645	0.00000	5286.05700
9.41028	0.00000	5286.05700
9.41411	0.00000	5286.05700
9.41795	0.00000	5286.05700
9.42178	0.00000	5286.05700
9.42563	0.00000	5289.32200
9.42947	0.00000	5289.32200
9.43331	0.00000	5289.32200
9.43714	0.00000	5289.32200
9.44098	0.00000	5289.32200
9.44482	0.00000	5289.32200
9.44865	0.00000	5298.80800
9.45251	0.00000	5298.80800
9.45635	0.00000	5298.80800
9.46019	0.00000	5298.80800
9.46403	0.00000	5298.80800
9.46788	0.00000	5298.80800
9.47172	0.00000	5298.80800
9.47555	0.00000	5291.71900
9.47939	0.00000	5291.71900
9.48322	0.00000	5291.71900
9.48705	0.00000	5291.71900
9.49089	0.00000	5291.71900
9.49472	0.00000	5291.71900
9.49856	0.00000	5290.00600
9.50239	0.00000	5290.00600
9.50623	0.00000	5290.00600
9.51006	0.00000	5290.00600
9.51391	0.00000	5290.00600
9.51775	0.00000	5290.00600
9.52158	0.00000	5290.00600
9.52544	0.00000	5292.41600
9.52926	0.00000	5292.41600
9.53311	0.00000	5292.41600
9.53695	0.00000	5292.41600
9.54079	0.00000	5292.41600
9.54462	0.00000	5292.41600
9.54847	0.00000	5292.41600
9.55230	0.00000	5294.11700
9.55615	0.00000	5294.11700
9.55999	0.00000	5294.11700
9.56384	0.00000	5294.11700
9.56768	0.00000	5294.11700
9.57152	0.00000	5294.11700
9.57533	0.00000	5287.59600
9.57917	0.00000	5287.59600
9.58300	0.00000	5287.59600
9.58683	0.00000	5287.59600
9.59066	0.00000	5287.59600
9.59451	0.00000	5287.59600
9.59835	0.00000	5287.59600
9.60219	0.00000	5291.71900
9.60602	0.00000	5291.71900
9.60986	0.00000	5291.71900
9.61369	0.00000	5291.71900
9.61753	0.00000	5291.71900
9.62139	0.00000	5291.71900
9.62522	0.00000	5291.71900
9.62905	0.00000	5293.26900
9.63289	0.00000	5293.26900
9.63672	0.00000	5293.26900
9.64055	0.00000	5293.26900
9.64439	0.00000	5293.26900
9.64823	0.00000	5293.26900
9.65206	0.00000	5290.00600
9.65590	0.00000	5290.00600
9.65975	0.00000	5290.00600
9.66358	0.00000	5290.00600
9.66742	0.00000	5290.00600
9.67126	0.00000	5290.00600
9.67509	0.00000	5290.00600
9.67893	0.00000	5275.82900
9.68277	0.00000	5275.82900
9.68660	0.00000	5275.82900
9.69043	0.00000	5275.82900
9.69429	0.00000	5275.82900
9.69813	0.00000	5275.82900
9.70195	0.00000	5287.59600
9.70580	0.00000	5287.59600
9.70965	0.00000	5287.59600
9.71348	0.00000	5287.59600
9.71732	0.00000	5287.59600
9.72116	0.00000	5287.59600
9.72500	0.00000	5287.59600
9.72885	0.00000	5295.67300
9.73268	0.00000	5295.67300
9.73652	0.00000	5295.67300
9.74037	0.00000	5295.67300
9.74421	0.00000	5295.67300
9.74804	0.00000	5295.67300
9.75188	0.00000	5295.67300
9.75574	0.00000	5294.11700
9.75956	0.00000	5294.11700
9.76340	0.00000	5294.11700
9.76725	0.00000	5294.11700
9.77109	0.00000	5294.11700
9.77494	0.00000	5294.11700
9.77877	0.00000	5297.23600
9.78261	0.00000	5297.23600
9.78643	0.00000	5297.23600
9.79027	0.00000	5297.23600
9.79410	0.00000	5297.23600
9.79794	0.00000	5297.23600
9.80178	0.00000	5297.23600
9.80562	0.00000	5280.61200
9.80945	0.00000	5280.61200
9.81329	0.00000	5280.61200
9.81712	0.00000	5280.61200
9.82098	0.00000	5280.61200
9.82483	0.00000	5280.61200
9.82867	0.00000	5281.25000
9.83249	0.00000	5281.25000
9.83633	0.00000	5281.25000
9.84018	0.00000	5281.25000
9.84401	0.00000	5281.25000
9.84784	0.00000	5281.25000
9.85168	0.00000	5281.25000
9.85552	0.00000	5292.41600
9.85933	0.00000	5292.41600
9.86316	0.00000	5292.41600
9.86701	0.00000	5292.41600
9.87085	0.00000	5292.41600
9.87469	0.00000	5292.41600
9.87852	0.00000	5292.41600
9.88237	0.00000	5294.11700
9.88621	0.00000	5294.11700
9.89004	0.00000	5294.11700
9.89388	0.00000	5294.11700
9.89772	0.00000	5294.11700
9.90156	0.00000	5294.11700
9.90540	0.00000	5281.25000
9.90926	0.00000	5281.25000
9.91309	0.00000	5281.25000
9.91693	0.00000	5281.25000
9.92077	0.00000	5281.25000
9.92461	0.00000	5281.25000
9.92845	0.00000	5281.25000
9.93229	0.00000	5283.00400
9.93612	0.00000	5283.00400
9.93996	0.00000	5283.00400
9.94380	0.00000	5283.00400
9.94763	0.00000	5283.00400
9.95147	0.00000	5283.00400
9.95532	0.00000	5283.00400
9.95915	0.00000	5286.92400
9.96299	0.00000	5286.92400
9.96683	0.00000	5286.92400
9.97067	0.00000	5286.92400
9.97450	0.00000	5286.92400
9.97834	0.00000	5286.92400
9.98218	0.00000	5292.41600
9.98602	0.00000	5292.41600
9.98985	0.00000	5292.41600
9.99368	0.00000	5292.41600
9.99753	0.00000	5292.41600
