Time (s)   Thrust (N)   RPM
0.00023	3.17633	4556.96200
0.03347	3.21375	4602.00400
0.06806	3.26987	4620.11700
0.10276	3.29996	4675.78100
0.13744	3.32797	4658.56500
0.17213	3.34563	4664.35100
0.20683	3.36085	4690.39300
0.24152	3.37587	4696.12700
0.27625	3.37654	4716.43500
0.31093	3.39587	4728.00900
0.34563	3.39899	4730.63600
0.38034	3.40111	4742.47600
0.41502	3.40253	4718.94000
0.44972	3.40421	4719.13300
0.48443	3.39981	4719.13300
0.51912	3.40727	4727.51500
0.55382	3.41362	4724.88500
0.58852	3.40968	4724.88500
0.62323	3.41500	4730.37300
0.65794	3.41951	4727.76000
0.69262	3.41528	4721.79900
0.72732	3.41193	4724.88500
0.76202	3.40974	4722.00900
0.79671	3.41546	4724.65700
0.83142	3.41689	4724.88500
0.86611	3.41674	4724.88500
0.90082	3.40850	4727.51500
0.93551	3.41606	4727.76000
0.97021	3.41667	4724.65700
1.00492	3.41207	4727.76000
1.03961	3.41274	4730.63600
1.07431	3.40894	4721.79900
1.10901	3.41344	4727.76000
1.14370	3.41345	4724.88500
1.17841	3.40862	4724.65700
1.21311	3.41696	4727.76000
1.24780	3.41130	4721.79900
1.28250	3.41759	4719.13300
1.31721	3.41517	4727.76000
1.35191	3.41015	4724.65700
1.38660	3.41147	4730.63600
1.42130	3.41545	4722.00900
1.45600	3.41074	4724.65700
1.49068	3.42424	4727.76000
1.52540	3.41497	4730.37300
1.56010	3.41686	4719.13300
1.59479	3.41112	4724.88500
1.62950	3.41377	4727.51500
1.66420	3.42079	4724.88500
1.69889	3.41106	4724.88500
1.73359	3.41228	4721.79900
1.76830	3.41366	4724.88500
1.80299	3.40955	4730.37300
1.83769	3.41163	4724.88500
1.87239	3.41457	4724.88500
1.90708	3.41057	4750.76700
1.94178	3.41279	4730.63600
1.97650	3.40922	4727.76000
2.01119	3.41142	4724.65700
2.04588	3.41594	4727.76000
2.08060	3.41544	4727.51500
2.11529	3.40645	4724.88500
2.14999	3.40783	4722.00900
2.18469	3.41180	4727.51500
2.21941	3.40109	4722.00900
2.25409	3.40675	4730.63600
2.28878	3.40207	4727.51500
2.32349	3.40415	4724.88500
2.35819	3.40498	4730.37300
2.39288	3.40448	4733.51200
2.42757	3.41230	4730.63600
2.46228	3.40522	4733.23100
2.49693	3.40981	4730.63600
2.53166	3.40235	4727.76000
2.56638	3.39999	4733.23100
2.60108	3.40343	4730.63600
2.63577	3.39874	4736.09000
2.67047	3.40264	4733.51200
2.70518	3.40253	4730.63600
2.73987	3.40301	4733.23100
2.77457	3.40896	4733.51200
2.80927	3.40372	4736.38800
2.84399	3.40191	4704.54500
2.87868	3.40624	4736.38800
2.91337	3.40807	4736.09000
2.94807	3.40426	4727.76000
2.98277	3.40021	4730.63600
3.01742	3.39914	4733.23100
3.05217	3.40331	4730.63600
3.08688	3.40299	4736.38800
3.12157	3.40608	4721.79900
3.15627	3.40870	4739.26400
3.19096	3.39733	4738.94800
3.22569	3.39613	4713.22400
3.26037	3.40288	4707.50700
3.29507	3.40220	4741.80600
3.32977	3.40796	4736.38800
3.36446	3.40473	4707.38600
3.39915	3.40318	4710.36500
3.43385	3.40169	4733.51200
3.46855	3.40396	4736.09000
3.50324	3.40411	4736.38800
3.53794	3.40350	4739.26400
3.57264	3.40189	4710.22700
3.60733	3.40187	4707.50700
3.64203	3.40378	4733.23100
3.67673	3.40258	4733.51200
3.71144	3.39907	4739.26400
3.74613	3.40337	4736.09000
3.78082	3.40006	4739.26400
3.81551	3.39708	4736.38800
3.85021	3.39885	4741.80600
3.88491	3.40355	4739.26400
3.91961	3.41168	4738.94800
3.95436	3.40337	4742.13900
4.03358	3.39863	4742.13900
4.06828	3.40777	4744.66400
4.10296	3.40439	4716.08200
4.13767	3.40362	4716.08200
4.17237	3.39947	4741.80600
4.20707	3.40143	4742.13900
4.24177	3.40477	4745.01500
4.27645	3.40197	4742.13900
4.31117	3.40279	4742.13900
4.34586	3.40281	4741.80600
4.38050	3.40871	4742.13900
4.41525	3.40174	4742.13900
4.44995	3.40550	4710.22700
4.48465	3.40799	4710.36500
4.51935	3.40055	4747.52300
4.55404	3.40448	4739.26400
4.58874	3.40333	4736.38800
4.62343	3.40474	4736.09000
4.65814	3.40886	4739.26400
4.69282	3.40552	4745.01500
4.72752	3.40825	4710.22700
4.76221	3.40693	4710.36500
4.79692	3.40311	4741.80600
4.83161	3.40471	4730.63600
4.86630	3.40046	4739.26400
4.90100	3.39919	4707.38600
4.93570	3.40458	4707.50700
4.97041	3.40427	4736.38800
5.00550	3.40177	4724.65700
5.03992	3.32062	4640.62500
5.07450	3.23455	4565.86200
5.10920	3.15593	4539.16100
5.14388	3.09875	4501.20100
5.17858	3.06571	4507.91400
5.21328	3.03760	4481.85500
5.24797	3.01656	4443.99300
5.28266	2.99664	4448.52900
5.31736	2.97992	4427.08300
5.35206	2.97464	4427.08300
5.38675	2.96148	4437.70500
5.42144	2.95620	4399.51000
5.45616	2.95827	4427.08300
5.49086	2.94938	4393.38200
5.52554	2.94522	4419.20200
5.56025	2.93968	4419.20200
5.59495	2.94838	4414.82800
5.62967	2.94331	4406.86600
5.66435	2.94079	4406.86600
5.69904	2.93589	4406.86600
5.73374	2.93235	4411.76400
5.76844	2.93343	4409.95000
5.80315	2.93558	4406.86600
5.83784	2.93316	4406.86600
5.87254	2.93250	4405.63700
5.90724	2.93212	4409.95000
5.94193	2.92951	4406.86600
5.97663	2.93391	4406.86600
6.01133	2.92754	4422.28600
6.04605	2.93829	4409.95000
6.08074	2.92656	4409.95000
6.11543	2.93375	4414.82800
6.15014	2.93614	4413.03400
6.18483	2.92732	4409.95000
6.21954	2.93208	4409.95000
6.25423	2.92701	4414.82800
6.28894	2.93005	4416.11800
6.32363	2.92766	4406.86600
6.35833	2.92842	4409.95000
6.39303	2.92911	4411.76400
6.42772	2.93000	4413.03400
6.46244	2.93570	4416.11800
6.49712	2.93586	4409.95000
6.53182	2.93371	4405.63700
6.56652	2.93115	4406.86600
6.60123	2.93332	4406.86600
6.63594	2.92964	4409.95000
6.67062	2.93285	4402.57300
6.70532	2.93392	4409.95000
6.74002	2.93399	4409.95000
6.77473	2.93337	4411.76400
6.80941	2.92688	4409.95000
6.84410	2.92977	4409.95000
6.87881	2.92851	4406.86600
6.91352	2.93523	4411.76400
6.94822	2.92894	4409.95000
6.98292	2.92700	4413.03400
7.01762	2.92496	4413.03400
7.05232	2.92274	4411.76400
7.08701	2.93068	4413.03400
7.12172	2.93248	4413.03400
7.15642	2.93160	4422.28600
7.19111	2.93302	4424.01900
7.22581	2.93365	4425.37000
7.26052	2.93104	4425.37000
7.29522	2.93521	4428.45400
7.32991	2.93057	4430.14700
7.36462	2.93393	4428.45400
7.39932	2.92647	4402.57300
7.43401	2.93164	4424.01900
7.46871	2.93059	4399.51000
7.50341	2.93384	4431.53700
7.53812	2.93224	4402.57300
7.57282	2.92696	4433.21100
7.60751	2.93430	4428.45400
7.64221	2.93584	4428.45400
7.67692	2.93671	4399.51000
7.71161	2.94182	4424.01900
7.74632	2.93616	4402.57300
7.78102	2.94381	4428.45400
7.81571	2.93931	4425.37000
7.85042	2.93811	4420.95600
7.88512	2.93655	4422.28600
7.91981	2.94176	4422.28600
7.95453	2.93531	4422.28600
7.98922	2.93939	4402.57300
8.02393	2.93979	4422.28600
8.05861	2.93819	4419.20200
8.09331	2.93774	4395.29200
8.12801	2.93261	4425.37000
8.16270	2.93263	4422.28600
8.19741	2.93076	4425.37000
8.23212	2.93768	4392.24800
8.26681	2.93251	4422.28600
8.30151	2.93617	4425.37000
8.38084	2.93630	4419.20200
8.41552	2.93629	4396.44600
8.45023	2.93127	4417.89200
8.48493	2.93617	4422.28600
8.51961	2.92745	4396.44600
8.55432	2.93453	4428.45400
8.58903	2.93692	4395.29200
8.62371	2.93059	4422.28600
8.65841	2.92966	4425.37000
8.69310	2.92850	4398.33600
8.72780	2.92316	4425.37000
8.76250	2.92203	4428.45400
8.79721	2.92629	4399.51000
8.83190	2.92897	4427.08300
8.86662	2.92369	4396.44600
8.90130	2.92903	4425.37000
8.93601	2.92509	4428.45400
8.97071	2.93668	4427.08300
9.00542	2.93777	4428.45400
9.04010	2.92693	4396.44600
9.07481	2.93069	4396.44600
9.10950	2.92868	4430.14700
9.14421	2.93710	4396.44600
9.17890	2.94208	4425.37000
9.21359	2.93313	4392.24800
9.24830	2.94086	4393.38200
9.28301	2.93560	4425.37000
9.31771	2.93487	4422.28600
9.35241	2.93542	4392.24800
9.38711	2.93944	4393.38200
9.42181	2.94013	4390.31900
9.45651	2.93683	4422.28600
9.49120	2.93474	4398.33600
9.52590	2.92941	4425.37000
9.56061	2.93156	4419.20200
9.59531	2.94361	4419.20200
9.63001	2.93999	4392.24800
9.66471	2.94072	4390.31900
9.69939	2.93526	4422.28600
9.73410	2.93702	4425.37000
9.76882	2.93156	4417.89200
9.80351	2.93320	4387.25500
9.83820	2.93174	4419.20200
9.87291	2.92862	4424.01900
9.90760	2.93123	4416.11800
9.94230	2.93386	4416.11800
9.97700	2.93236	4413.03400
