Time (s)   Thrust (N)   RPM  Input
0.00025	3.48582	4828.68900	7.00000
0.02619	3.39768	4814.57100	7.00000
0.06081	3.54423	4738.32800	7.00000
0.09549	3.48434	4743.97500	7.00000
0.13016	3.46797	4724.65700	7.00000
0.16487	3.43823	4741.80600	7.00000
0.19957	3.43268	4745.37000	7.00000
0.23432	3.35795	4676.06700	7.00000
0.26897	3.45857	4693.21700	7.00000
0.30367	3.36013	4716.43500	7.00000
0.33839	3.37754	4713.54100	7.00000
0.37307	3.34491	4730.90300	7.00000
0.40777	3.38267	4707.75500	7.00000
0.44248	3.37428	4673.20900	7.00000
0.47719	3.36890	4699.07400	7.00000
0.51189	3.35315	4699.07400	7.00000
0.54659	3.38504	4728.00900	7.00000
0.58129	3.44067	4699.07400	7.00000
0.61602	3.39233	4687.50000	7.00000
0.65070	3.41003	4670.35000	7.00000
0.68542	3.38244	4687.50000	7.00000
0.72012	3.41352	4687.50000	7.00000
0.75482	3.41981	4713.54100	7.00000
0.78952	3.41436	4690.39300	7.00000
0.82422	3.39881	4710.64800	7.00000
0.85892	3.41443	4743.16400	7.00000
0.89362	3.40913	4678.81900	7.00000
0.92833	3.41387	4704.86100	7.00000
0.96304	3.31794	4746.09400	7.00000
0.99773	3.38235	4681.71300	7.00000
1.03245	3.38820	4710.64800	7.00000
1.06715	3.39626	4740.23400	7.00000
1.10186	3.38530	4678.81900	7.00000
1.13656	3.36712	4707.75500	7.00000
1.17126	3.39399	4737.30400	7.00000
1.20598	3.38891	4710.64800	7.00000
1.24066	3.38943	4678.81900	7.00000
1.27537	3.37545	4678.81900	7.00000
1.31007	3.39722	4710.64800	7.00000
1.34475	3.40018	4675.92600	7.00000
1.37948	3.39023	4684.60600	7.00000
1.41419	3.43292	4713.54100	7.00000
1.44889	3.36998	4690.39300	7.00000
1.48360	3.39815	4740.23400	7.00000
1.51830	3.35600	4713.54100	7.00000
1.55299	3.36857	4678.81900	7.00000
1.58770	3.34217	4713.54100	7.00000
1.62240	3.37636	4740.23400	7.00000
1.65704	3.28527	4684.60600	7.00000
1.69181	3.32289	4707.75500	7.00000
1.72650	3.31510	4684.60600	7.00000
1.76124	3.39469	4681.71300	7.00000
1.79592	3.32849	4716.43500	7.00000
1.83062	3.40349	4687.50000	7.00000
1.86532	3.40969	4684.60600	7.00000
1.90003	3.38249	4716.43500	7.00000
1.93476	3.37551	4687.50000	7.00000
1.96945	3.40604	4713.54100	7.00000
2.00416	3.34394	4743.16400	7.00000
2.03885	3.41404	4678.81900	7.00000
2.07356	3.32771	4716.43500	7.00000
2.10826	3.38545	4743.16400	7.00000
2.14296	3.38569	4681.71300	7.00000
2.17766	3.42568	4707.75500	7.00000
2.21237	3.36155	4684.60600	7.00000
2.24707	3.37206	4673.03200	7.00000
2.28181	3.35553	4699.07400	7.00000
2.31649	3.38083	4675.92600	7.00000
2.35122	3.33137	4707.75500	7.00000
2.38592	3.37381	4675.92600	7.00000
2.42063	3.39979	4675.92600	7.00000
2.45530	3.39034	4704.86100	7.00000
2.49002	3.43540	4728.51500	7.00000
2.52471	3.40743	4675.92600	7.00000
2.55941	3.39732	4641.76800	7.00000
2.59413	3.39740	4667.24500	7.00000
2.62883	3.38127	4731.44500	7.00000
2.66353	3.37105	4699.07400	7.00000
2.69824	3.38857	4675.92600	7.00000
2.73293	3.38965	4678.81900	7.00000
2.76764	3.23391	4678.81900	7.00000
2.80236	3.38828	4675.92600	7.00000
2.83704	3.40355	4704.86100	7.00000
2.87175	3.39322	4678.81900	7.00000
2.90646	3.38505	4681.71300	7.00000
2.94111	3.41108	4710.64800	7.00000
2.97590	3.38873	4740.23400	7.00000
3.01058	3.37552	4684.60600	7.00000
3.04527	3.37519	4710.64800	7.00000
3.07997	3.38002	4684.60600	7.00000
3.11469	3.39671	4684.60600	7.00000
3.14940	3.38258	4701.96700	7.00000
3.18409	3.38212	4687.50000	7.00000
3.21880	3.37873	4656.05900	7.00000
3.25350	3.36233	4687.50000	7.00000
3.28822	3.39261	4681.71300	7.00000
3.32293	3.39244	4719.32900	7.00000
3.35762	3.37148	4746.09400	7.00000
3.39232	3.37784	4684.60600	7.00000
3.47082	3.38052	4704.86100	7.00000
3.50550	3.39130	4740.23400	7.00000
3.54022	3.37812	4681.71300	7.00000
3.57493	3.40575	4707.75500	7.00000
3.60962	3.38279	4687.50000	7.00000
3.64433	3.39430	4653.20100	7.00000
3.67902	3.39085	4687.50000	7.00000
3.71373	3.38232	4684.60600	7.00000
3.74845	3.39761	4653.20100	7.00000
3.78314	3.37649	4687.50000	7.00000
3.81785	3.38042	4681.71300	7.00000
3.85255	3.38692	4653.20100	7.00000
3.88726	3.37404	4681.71300	7.00000
3.92195	3.36138	4684.60600	7.00000
3.95667	3.39659	4650.34300	7.00000
3.99136	3.36577	4681.71300	7.00000
4.02608	3.40504	4681.71300	7.00000
4.06075	3.38836	4687.50000	7.00000
4.09548	3.39505	4681.71300	7.00000
4.13018	3.39001	4716.43500	7.00000
4.16488	3.44613	4684.60600	7.00000
4.19959	3.41294	4684.60600	7.00000
4.23429	3.37530	4719.32900	7.00000
4.26900	3.37934	4684.60600	7.00000
4.30371	3.40453	4684.60600	7.00000
4.33841	3.39907	4710.64800	7.00000
4.37313	3.38817	4681.71300	7.00000
4.40782	3.38099	4743.16400	7.00000
4.44253	3.43753	4693.28700	7.00000
4.47724	3.40565	4690.39300	7.00000
4.51194	3.45268	4713.54100	7.00000
4.54665	3.43844	4687.50000	7.00000
4.58134	3.41703	4678.81900	7.00000
4.61605	3.40921	4704.86100	7.00000
4.65076	3.37485	4675.92600	7.00000
4.68546	3.39905	4675.92600	7.00000
4.72016	3.41724	4699.07400	7.00000
4.75486	3.37053	4731.44500	7.00000
4.78957	3.39905	4670.13900	7.00000
4.82428	3.40392	4636.05200	7.00000
4.85897	3.39914	4670.13900	7.00000
4.89367	3.39268	4696.18000	7.00000
4.92839	3.38376	4673.03200	7.00000
4.96310	3.38636	4734.37500	7.00000
4.99779	3.37798	4696.18000	7.00000
5.03291	3.49148	4734.37500	7.20000
5.11095	3.52283	4789.15600	7.20000
5.18905	3.58929	4832.58900	7.20000
5.22374	3.64363	4833.63900	7.20000
5.25844	3.65952	4845.56700	7.20000
5.29315	3.72531	4913.60300	7.20000
5.32787	3.75456	4900.07300	7.20000
5.36260	3.76888	4889.54700	7.20000
5.39727	3.75956	4932.77600	7.20000
5.43198	3.80997	4968.20400	7.20000
5.46668	3.80353	5004.59500	7.20000
5.50138	3.85482	4927.26300	7.20000
5.53608	3.79047	4962.75400	7.20000
5.57079	3.83085	4932.65100	7.20000
5.60550	3.82664	4968.20400	7.20000
5.64020	3.82036	4940.73300	7.20000
5.67490	3.83119	4970.93000	7.20000
5.70961	3.82625	5003.63400	7.20000
5.74432	3.81768	4973.65500	7.20000
5.77902	3.81171	4976.38100	7.20000
5.81372	3.82279	4948.81400	7.20000
5.84842	3.80871	4981.83100	7.20000
5.88313	3.82865	4956.89600	7.20000
5.91784	3.84060	4987.28200	7.20000
5.95255	3.84562	4951.50800	7.20000
5.98725	3.82923	4981.83100	7.20000
6.02195	3.77274	4951.50800	7.20000
6.05666	3.83187	4981.83100	7.20000
6.09135	3.83205	5006.35900	7.20000
6.12606	3.83831	4913.79300	7.20000
6.16075	3.82455	4948.81400	7.20000
6.19547	3.77890	4970.93000	7.20000
6.23017	3.82290	4976.38100	7.20000
6.26490	3.82930	4948.81400	7.20000
6.29958	3.82488	4973.65500	7.20000
6.33431	3.79856	4946.12000	7.20000
6.36900	3.82196	4976.38100	7.20000
6.40368	3.77880	5000.90800	7.20000
6.43841	3.81913	4921.87500	7.20000
6.47310	3.82199	4946.12000	7.20000
6.50782	3.85662	4970.93000	7.20000
6.54251	3.83946	5000.90800	7.20000
6.57721	3.80396	4973.65500	7.20000
6.61192	3.82812	4948.81400	7.20000
6.64662	3.83218	4968.20400	7.20000
6.68133	3.79525	4965.47900	7.20000
6.71604	3.83341	4935.34400	7.20000
6.75074	3.86161	4962.75400	7.20000
6.78544	3.82015	4935.34400	7.20000
6.82014	3.89722	4962.75400	7.20000
6.85485	3.83800	4990.00700	7.20000
6.88954	3.84101	4965.47900	7.20000
6.92425	3.84066	4992.73300	7.20000
6.95897	3.84714	4965.47900	7.20000
6.99365	3.82831	4992.73300	7.20000
7.02836	3.84270	4968.20400	7.20000
7.06307	3.75038	4940.73300	7.20000
7.09778	3.81161	4962.75400	7.20000
7.13249	3.82201	4960.02900	7.20000
7.16719	3.78798	4932.65100	7.20000
7.20188	3.83745	4965.47900	7.20000
7.23660	3.80671	4932.65100	7.20000
7.27130	3.80353	5015.62500	7.20000
7.30599	3.80432	4935.34400	7.20000
7.34070	3.78102	4962.75400	7.20000
7.37541	3.82090	4938.03900	7.20000
7.41012	3.77068	4957.30300	7.20000
7.44483	3.75486	4924.56900	7.20000
7.47954	3.73178	4957.30300	7.20000
7.51423	3.73884	4929.95700	7.20000
7.54893	3.80342	4954.57800	7.20000
7.58365	3.77064	4957.30300	7.20000
7.61834	3.80186	4981.83100	7.20000
7.65304	3.79777	4954.57800	7.20000
7.68775	3.76274	4979.10600	7.20000
7.72245	3.78421	4951.85300	7.20000
7.75717	3.79500	4927.26300	7.20000
7.79186	3.69241	4954.57800	7.20000
7.82657	3.66639	4935.34400	7.20000
7.86127	3.70823	4962.75400	7.20000
7.89597	3.65829	4932.65100	7.20000
7.93069	3.55829	4965.47900	7.20000
7.96540	3.74900	4970.93000	7.20000
8.00011	3.77143	4940.73300	7.20000
8.03480	3.69837	4973.65500	7.20000
8.06952	3.73173	4946.12000	7.20000
8.10422	3.70558	4979.10600	7.20000
8.13891	3.66104	4956.89600	7.20000
8.17361	3.71896	4981.83100	7.20000
8.20833	3.63315	4959.59000	7.20000
8.24302	3.57923	4995.45800	7.20000
8.27773	3.63893	4967.67200	7.20000
8.31243	3.75584	4992.73300	7.20000
8.34714	3.69150	4967.67200	7.20000
8.38186	3.79105	4995.45800	7.20000
8.41657	3.80884	4967.67200	7.20000
8.45126	3.79072	4992.73300	7.20000
8.48595	3.88400	4940.73300	7.20000
8.52067	3.79577	4967.67200	7.20000
8.55538	3.82947	4932.65100	7.20000
8.59008	3.81643	4962.28400	7.20000
8.62475	3.77736	4929.95700	7.20000
8.65950	3.72566	4956.89600	7.20000
8.69420	3.71093	4987.28200	7.20000
8.72892	3.79204	4959.59000	7.20000
8.76361	3.76764	4995.45800	7.20000
8.79831	3.83157	4967.67200	7.20000
8.83301	3.68947	4995.45800	7.20000
8.86771	3.75456	4959.59000	7.20000
8.90241	3.68477	4995.45800	7.20000
8.93712	3.81309	4935.34400	7.20000
8.97186	3.75249	4956.89600	7.20000
9.00654	3.75408	4990.00700	7.20000
9.04123	3.67437	4967.67200	7.20000
9.07595	3.93223	4992.73300	7.20000
9.11064	3.76706	4964.97800	7.20000
9.14535	3.82359	4998.18300	7.20000
9.18004	3.73043	4964.97800	7.20000
9.21476	3.78521	4987.28200	7.20000
9.24946	3.76079	4959.59000	7.20000
9.28416	3.79586	4990.00700	7.20000
9.31889	3.81860	4959.59000	7.20000
9.35359	3.80129	4998.18300	7.20000
9.38828	3.79657	4962.28400	7.20000
9.42299	3.76412	4992.73300	7.20000
9.45768	3.79098	4940.73300	7.20000
9.49238	3.75677	4967.67200	7.20000
9.52710	3.76882	4932.65100	7.20000
9.56180	3.78533	4967.67200	7.20000
9.59649	3.74009	4938.03900	7.20000
9.63121	3.70281	4975.75400	7.20000
9.66590	3.78557	4946.12000	7.20000
9.70061	3.66161	5033.61200	7.20000
9.73532	3.76204	5003.63400	7.20000
9.77002	3.77254	4973.06000	7.20000
9.80473	3.76390	5003.63400	7.20000
9.83943	3.83341	4975.75400	7.20000
9.87413	3.78779	4951.50800	7.20000
9.90884	3.74401	4978.44800	7.20000
9.94355	3.72918	5011.80900	7.20000
