Time (s)   Thrust (N)   RPM  Input
0.00021	3.98315	5122.01500	7.00000
0.03496	3.85024	4987.28200	7.00000
0.11299	3.73566	4921.87500	7.00000
0.14764	3.64356	4860.49000	7.00000
0.18234	3.57060	4825.86500	7.00000
0.21704	3.51241	4789.15600	7.00000
0.25174	3.50034	4790.39600	7.00000
0.28645	3.46457	4790.39600	7.00000
0.32116	3.43613	4730.37300	7.00000
0.35586	3.40842	4768.51800	7.00000
0.39056	3.42084	4733.23100	7.00000
0.42526	3.40286	4690.35800	7.00000
0.45997	3.39669	4707.50700	7.00000
0.49468	3.38754	4670.35000	7.00000
0.52937	3.40168	4722.22200	7.00000
0.56409	3.39776	4693.21700	7.00000
0.59879	3.38824	4713.54100	7.00000
0.63350	3.38383	4716.43500	7.00000
0.66819	3.39893	4687.50000	7.00000
0.70289	3.39047	4716.43500	7.00000
0.73761	3.40388	4684.64100	7.00000
0.77230	3.38661	4710.64800	7.00000
0.80701	3.38959	4713.54100	7.00000
0.84172	3.40355	4710.64800	7.00000
0.92000	3.38905	4704.86100	7.00000
0.95470	3.37729	4710.64800	7.00000
0.98940	3.39573	4681.78300	7.00000
1.02409	3.38933	4707.75500	7.00000
1.05880	3.39381	4704.86100	7.00000
1.09350	3.38690	4730.90300	7.00000
1.12822	3.39429	4707.75500	7.00000
1.16291	3.38177	4701.96700	7.00000
1.19761	3.37248	4704.86100	7.00000
1.23233	3.37973	4701.96700	7.00000
1.26704	3.38006	4678.92500	7.00000
1.30174	3.30777	4704.86100	7.00000
1.33647	3.39629	4707.75500	7.00000
1.41471	3.39383	4733.79600	7.00000
1.44949	3.39418	4707.75500	7.00000
1.52768	3.39744	4707.75500	7.00000
1.56233	3.38641	4673.20900	7.00000
1.59708	3.38980	4701.96700	7.00000
1.63177	3.38062	4701.96700	7.00000
1.66648	3.36279	4670.35000	7.00000
1.70118	3.37654	4707.75500	7.00000
1.73588	3.25034	4733.79600	7.00000
1.77060	3.38390	4704.86100	7.00000
1.84982	3.39235	4704.86100	7.00000
1.88453	3.37489	4739.58300	7.00000
1.91923	3.43835	4704.86100	7.00000
1.95393	3.39293	4704.86100	7.00000
1.98864	3.37303	4728.00900	7.00000
2.02334	3.36342	4701.96700	7.00000
2.05803	3.36915	4707.75500	7.00000
2.09274	3.37224	4739.58300	7.00000
2.12744	3.38239	4704.86100	7.00000
2.16216	3.37149	4699.07400	7.00000
2.19686	3.39056	4733.79600	7.00000
2.23155	3.35184	4701.96700	7.00000
2.26627	3.35233	4733.79600	7.00000
2.30097	3.38323	4707.75500	7.00000
2.33567	3.37931	4710.64800	7.00000
2.37033	3.36579	4684.64100	7.00000
2.40507	3.31212	4710.64800	7.00000
2.43977	3.36304	4707.75500	7.00000
2.47448	3.38497	4678.92500	7.00000
2.50918	3.39574	4707.75500	7.00000
2.54387	3.40006	4710.64800	7.00000
2.57857	3.37530	4710.64800	7.00000
2.61329	3.35668	4701.96700	7.00000
2.64799	3.38881	4733.79600	7.00000
2.68270	3.22263	4701.96700	7.00000
2.71741	3.40226	4707.75500	7.00000
2.75215	3.37867	4736.69000	7.00000
2.78683	3.37754	4707.75500	7.00000
2.82152	3.37766	4707.75500	7.00000
2.85622	3.35706	4730.90300	7.00000
2.89092	3.36218	4701.96700	7.00000
2.92561	3.37719	4736.69000	7.00000
2.96032	3.36419	4704.86100	7.00000
2.99501	3.37264	4704.86100	7.00000
3.02973	3.36175	4736.69000	7.00000
3.06443	3.39909	4701.96700	7.00000
3.09913	3.37714	4701.96700	7.00000
3.13383	3.34550	4739.58300	7.00000
3.16854	3.35024	4704.86100	7.00000
3.20323	3.37939	4704.86100	7.00000
3.28156	3.33468	4742.47600	7.00000
3.31626	3.37026	4704.86100	7.00000
3.35095	3.37619	4745.37000	7.00000
3.38565	3.36996	4710.64800	7.00000
3.42035	3.41807	4713.54100	7.00000
3.45505	3.38564	4676.06700	7.00000
3.48975	3.36758	4710.64800	7.00000
3.52446	3.37226	4710.64800	7.00000
3.55916	3.37140	4676.06700	7.00000
3.59389	3.38873	4710.64800	7.00000
3.62858	3.39432	4701.96700	7.00000
3.66328	3.37705	4673.20900	7.00000
3.69798	3.37767	4704.86100	7.00000
3.73268	3.37963	4736.69000	7.00000
3.76738	3.37566	4707.75500	7.00000
3.80209	3.37146	4707.75500	7.00000
3.83679	3.37727	4745.37000	7.00000
3.87149	3.38281	4653.20100	7.00000
3.90620	3.38339	4707.75500	7.00000
3.94090	3.34869	4678.92500	7.00000
3.97560	3.37647	4710.64800	7.00000
4.01032	3.37691	4681.78300	7.00000
4.04501	3.38637	4710.64800	7.00000
4.07971	3.37265	4707.75500	7.00000
4.11442	3.37116	4736.69000	7.00000
4.14914	3.33502	4707.75500	7.00000
4.18383	3.36981	4704.86100	7.00000
4.21854	3.39160	4742.47600	7.00000
4.25324	3.37146	4704.86100	7.00000
4.28795	3.41381	4701.96700	7.00000
4.32265	3.39190	4676.06700	7.00000
4.35735	3.37947	4704.86100	7.00000
4.39205	3.39083	4678.92500	7.00000
4.42677	3.39583	4704.86100	7.00000
4.46147	3.37960	4701.96700	7.00000
4.49616	3.38711	4670.35000	7.00000
4.53088	3.39396	4701.96700	7.00000
4.56558	3.39944	4701.96700	7.00000
4.60028	3.37426	4728.00900	7.00000
4.63499	3.39060	4701.96700	7.00000
4.66970	3.37748	4701.96700	7.00000
4.70441	3.35546	4716.43500	7.00000
4.73911	3.37438	4710.64800	7.00000
4.77383	3.35864	4728.00900	7.00000
4.80854	3.37703	4707.75500	7.00000
4.84322	3.36522	4704.86100	7.00000
4.87796	3.31139	4713.54100	7.00000
4.95626	3.27843	4710.64800	7.00000
4.99097	3.36221	4716.43500	7.00000
5.02620	3.36881	4719.32900	7.40000
5.10564	3.65853	4902.79800	7.40000
5.18459	3.79251	5015.09200	7.40000
5.21924	3.94304	5108.30900	7.40000
5.25394	4.00556	5088.54100	7.40000
5.28865	4.04399	5151.04100	7.40000
5.32336	4.01556	5156.25000	7.40000
5.35806	4.15954	5169.12800	7.40000
5.39277	4.14943	5212.91200	7.40000
5.47138	4.14091	5233.51600	7.40000
5.55001	4.17419	5238.66700	7.40000
5.58470	4.18023	5217.39100	7.40000
5.61942	4.19544	5189.36800	7.40000
5.65411	4.17654	5166.33000	7.40000
5.68882	4.19233	5194.46300	7.40000
5.72351	4.16780	5227.58100	7.40000
5.75822	4.20727	5199.55800	7.40000
5.79292	4.20437	5227.58100	7.40000
5.82762	4.05279	5248.96900	7.40000
5.86232	4.14235	5204.65400	7.40000
5.89703	4.18010	5225.03300	7.40000
5.93175	4.16304	5194.46300	7.40000
5.96639	4.15016	5171.37100	7.40000
6.00114	4.16930	5199.55800	7.40000
6.03584	4.10697	5171.37100	7.40000
6.07055	4.17226	5197.01100	7.40000
6.10525	4.16743	5171.37100	7.40000
6.13996	4.18377	5194.46300	7.40000
6.17467	4.13817	5219.93900	7.40000
6.20937	4.17871	5217.39100	7.40000
6.24409	4.20907	5248.96900	7.40000
6.27878	4.06924	5217.39100	7.40000
6.31348	4.20042	5186.82000	7.40000
6.34817	4.15233	5209.74800	7.40000
6.38289	3.97661	5236.09200	7.40000
6.41760	4.23996	5204.65400	7.40000
6.45231	4.18577	5228.36500	7.40000
6.48701	4.18287	5236.09200	7.40000
6.56619	4.04130	5204.65400	7.40000
6.60089	4.20639	5174.08200	7.40000
6.63559	4.18559	5202.10600	7.40000
6.67030	4.18733	5168.98800	7.40000
6.70500	4.17026	5202.10600	7.40000
6.73969	4.17732	5228.36500	7.40000
6.77439	4.16280	5204.65400	7.40000
6.80911	4.15446	5233.51600	7.40000
6.84380	4.08560	5186.82000	7.40000
6.87851	4.18945	5209.74800	7.40000
6.91322	4.19399	5236.09200	7.40000
6.94794	4.13280	5204.65400	7.40000
6.98265	4.15702	5236.09200	7.40000
7.01734	4.17546	5207.20100	7.40000
7.05204	4.16096	5181.72500	7.40000
7.08674	4.01236	5207.20100	7.40000
7.12140	4.10390	5238.66700	7.40000
7.15615	4.15599	5212.29600	7.40000
7.19086	4.18522	5214.84400	7.40000
7.22557	4.12931	5179.17700	7.40000
7.26027	4.17152	5214.84400	7.40000
7.29496	4.16485	5241.24300	7.40000
7.32967	4.19103	5212.29600	7.40000
7.36437	4.16796	5189.36800	7.40000
7.39908	4.16814	5214.84400	7.40000
7.43378	4.15798	5246.39400	7.40000
7.46848	4.12721	5217.39100	7.40000
7.50321	4.10363	5222.48600	7.40000
7.53789	4.16325	5194.46300	7.40000
7.57259	4.17966	5225.03300	7.40000
7.60730	4.16111	5248.96900	7.40000
7.64199	4.16957	5219.93900	7.40000
7.67672	4.15108	5251.54500	7.40000
7.71141	4.10168	5227.58100	7.40000
7.74612	4.15198	5254.12000	7.40000
7.78082	4.16334	5230.12900	7.40000
7.81551	4.13994	5261.84700	7.40000
7.85024	4.12299	5235.22400	7.40000
7.88491	4.15368	5237.77100	7.40000
7.91963	4.14988	5266.99800	7.40000
7.95433	4.14511	5242.86700	7.40000
7.98903	4.15987	5209.74800	7.40000
8.02373	4.15259	5245.41400	7.40000
8.05844	4.14381	5264.42300	7.40000
8.09314	4.14033	5240.31900	7.40000
8.12785	4.18196	5209.74800	7.40000
8.16254	4.13296	5181.45100	7.40000
8.19725	4.15129	5183.97200	7.40000
8.23196	4.12974	5204.65400	7.40000
8.26667	4.14049	5240.31900	7.40000
8.30137	4.14326	5266.99800	7.40000
8.33607	4.15358	5240.31900	7.40000
8.37078	4.14690	5209.74800	7.40000
8.40548	4.14073	5235.22400	7.40000
8.44018	4.16197	5199.55800	7.40000
8.47488	4.13597	5181.45100	7.40000
8.50958	4.15178	5181.45100	7.40000
8.54429	4.15718	5209.74800	7.40000
8.57900	4.17405	5237.77100	7.40000
8.61370	4.16040	5209.74800	7.40000
8.64841	4.14768	5237.77100	7.40000
8.68310	4.13397	5212.29600	7.40000
8.71780	4.11324	5181.45100	7.40000
8.75250	4.12561	5212.29600	7.40000
8.78721	4.05251	5242.86700	7.40000
8.82192	3.96538	5245.41400	7.40000
8.85663	3.97951	5277.30100	7.40000
8.89133	4.01112	5245.41400	7.40000
8.92602	4.04048	5219.93900	7.40000
8.96074	4.08780	5253.05700	7.40000
8.99544	4.13083	5214.84400	7.40000
9.03015	4.03219	5194.05200	7.40000
9.06484	4.02458	5279.87600	7.40000
9.09954	4.13597	5247.96200	7.40000
9.13425	4.04392	5191.53200	7.40000
9.16895	4.08966	5219.93900	7.40000
9.20366	4.10765	5250.51000	7.40000
9.23838	4.11290	5222.48600	7.40000
9.27308	4.12765	5199.09300	7.40000
9.30781	4.07879	5279.87600	7.40000
9.34249	3.99024	5250.51000	7.40000
9.37718	4.10275	5227.58100	7.40000
9.41189	4.08118	5253.05700	7.40000
9.44659	4.09979	5253.05700	7.40000
9.48129	4.08682	5214.84400	7.40000
9.51599	4.09739	5245.41400	7.40000
9.55072	4.10914	5272.14900	7.40000
9.58540	4.14651	5245.41400	7.40000
9.62011	4.07675	5212.29600	7.40000
9.65482	4.06540	5189.01200	7.40000
9.68952	4.08483	5214.84400	7.40000
9.72422	4.13332	5245.41400	7.40000
9.75894	4.14405	5247.96200	7.40000
9.79363	4.17161	5209.74800	7.40000
9.82835	4.04571	5183.97200	7.40000
9.86305	4.07100	5212.29600	7.40000
9.89775	4.10684	5237.77100	7.40000
9.93251	4.13843	5204.65400	7.40000
