Time (s)   Thrust (N)   RPM
0.00029	0.00000	5915.46500
0.00422	0.00000	5891.70200
0.00823	0.00000	5891.70200
0.01235	0.00000	5891.70200
0.01636	0.00000	5891.70200
0.02053	0.00000	5891.70200
0.02459	0.00000	5891.70200
0.02880	0.00000	5891.70200
0.03290	0.00000	5877.71700
0.03689	0.00000	5877.71700
0.04084	0.00000	5877.71700
0.04491	0.00000	5877.71700
0.04895	0.00000	5877.71700
0.05359	0.00000	5877.71700
0.05772	0.00000	5877.71700
0.06167	0.00000	5627.17000
0.06590	0.00000	5627.17000
0.07009	0.00000	5627.17000
0.07414	0.00000	5627.17000
0.07805	0.00000	5627.17000
0.08197	0.00000	5627.17000
0.08625	0.00000	5451.81600
0.09030	0.00000	5451.81600
0.09420	0.00000	5451.81600
0.09834	0.00000	5451.81600
0.10261	0.00000	5451.81600
0.10677	0.00000	5451.81600
0.11072	0.00000	5451.81600
0.11464	0.00000	5289.49800
0.11882	0.00000	5289.49800
0.12280	0.00000	5289.49800
0.12664	0.00000	5289.49800
0.13053	0.00000	5289.49800
0.13457	0.00000	5289.49800
0.13866	0.00000	5185.85500
0.14287	0.00000	5185.85500
0.14885	0.00000	5185.85500
0.15293	0.00000	5185.85500
0.15978	0.00000	5115.26600
0.16452	0.00000	5115.26600
0.16860	0.00000	5115.26600
0.17258	0.00000	5115.26600
0.17647	0.00000	5115.26600
0.18148	0.00000	5115.26600
0.18558	0.00000	5055.24800
0.18950	0.00000	5055.24800
0.19345	0.00000	5055.24800
0.19742	0.00000	5055.24800
0.20157	0.00000	5055.24800
0.20658	0.00000	5055.24800
0.21075	0.00000	4993.88900
0.21524	0.00000	4993.88900
0.21927	0.00000	4993.88900
0.22333	0.00000	4993.88900
0.22728	0.00000	4993.88900
0.23176	0.00000	4947.03400
0.23583	0.00000	4947.03400
0.23990	0.00000	4947.03400
0.24397	0.00000	4947.03400
0.24810	0.00000	4947.03400
0.25251	0.00000	4947.03400
0.25682	0.00000	4896.71600
0.26086	0.00000	4896.71600
0.26484	0.00000	4896.71600
0.26903	0.00000	4896.71600
0.27309	0.00000	4896.71600
0.27703	0.00000	4864.28500
0.28092	0.00000	4864.28500
0.28495	0.00000	4864.28500
0.28925	0.00000	4864.28500
0.29336	0.00000	4864.28500
0.29728	0.00000	4864.28500
0.30169	0.00000	4837.50000
0.30567	0.00000	4837.50000
0.30973	0.00000	4837.50000
0.31369	0.00000	4837.50000
0.31767	0.00000	4837.50000
0.32203	0.00000	4812.13800
0.32603	0.00000	4812.13800
0.32993	0.00000	4812.13800
0.33388	0.00000	4812.13800
0.33786	0.00000	4812.13800
0.34181	0.00000	4812.13800
0.34583	0.00000	4804.01000
0.34994	0.00000	4804.01000
0.35402	0.00000	4804.01000
0.35801	0.00000	4804.01000
0.36212	0.00000	4804.01000
0.36615	0.00000	4804.01000
0.37036	0.00000	4796.51100
0.37436	0.00000	4796.51100
0.37918	0.00000	4796.51100
0.38320	0.00000	4796.51100
0.38719	0.00000	4796.51100
0.39276	0.00000	4769.73700
0.39674	0.00000	4769.73700
0.40063	0.00000	4769.73700
0.40449	0.00000	4769.73700
0.40835	0.00000	4769.73700
0.41220	0.00000	4781.25000
0.41606	0.00000	4781.25000
0.41991	0.00000	4781.25000
0.42381	0.00000	4781.25000
0.42771	0.00000	4781.25000
0.43166	0.00000	4781.25000
0.43556	0.00000	4764.25400
0.43950	0.00000	4764.25400
0.44338	0.00000	4764.25400
0.44725	0.00000	4764.25400
0.45114	0.00000	4764.25400
0.45505	0.00000	4764.25400
0.45893	0.00000	4778.49200
0.46281	0.00000	4778.49200
0.47190	0.00000	4778.49200
0.47676	0.00000	4778.49200
0.48382	0.00000	4762.83500
0.48789	0.00000	4762.83500
0.49588	0.00000	4762.83500
0.49994	0.00000	4729.35200
0.50445	0.00000	4729.35200
0.50860	0.00000	4729.35200
0.51259	0.00000	4729.35200
0.51650	0.00000	4729.35200
0.52101	0.00000	4729.35200
0.52534	0.00000	4739.88900
0.53005	0.00000	4739.88900
0.53405	0.00000	4739.88900
0.53877	0.00000	4739.88900
0.54329	0.00000	4746.09400
0.54891	0.00000	4746.09400
0.55295	0.00000	4746.09400
0.55698	0.00000	4746.09400
0.56091	0.00000	4746.09400
0.56481	0.00000	4746.09400
0.56875	0.00000	4734.65200
0.57264	0.00000	4734.65200
0.57679	0.00000	4734.65200
0.58095	0.00000	4734.65200
0.58497	0.00000	4734.65200
0.58889	0.00000	4760.04500
0.59276	0.00000	4760.04500
0.59683	0.00000	4760.04500
0.60275	0.00000	4760.04500
0.60719	0.00000	4760.04500
0.61125	0.00000	4748.88400
0.61526	0.00000	4748.88400
0.61923	0.00000	4748.88400
0.62329	0.00000	4748.88400
0.62787	0.00000	4748.88400
0.63276	0.00000	4737.72300
0.63676	0.00000	4737.72300
0.64077	0.00000	4737.72300
0.64474	0.00000	4737.72300
0.64886	0.00000	4737.72300
0.65472	0.00000	4757.25400
0.65883	0.00000	4757.25400
0.66293	0.00000	4757.25400
0.66691	0.00000	4757.25400
0.67089	0.00000	4757.25400
0.67480	0.00000	4757.25400
0.67867	0.00000	4751.29400
0.68256	0.00000	4751.29400
0.68654	0.00000	4751.29400
0.69044	0.00000	4751.29400
0.69455	0.00000	4751.29400
0.69844	0.00000	4723.55700
0.70242	0.00000	4723.55700
0.70632	0.00000	4723.55700
0.71019	0.00000	4723.55700
0.71405	0.00000	4723.55700
0.71790	0.00000	4723.55700
0.72175	0.00000	4717.83100
0.72558	0.00000	4717.83100
0.72943	0.00000	4717.83100
0.73328	0.00000	4717.83100
0.73713	0.00000	4717.83100
0.74096	0.00000	4717.83100
0.74481	0.00000	4729.10500
0.74866	0.00000	4729.10500
0.75257	0.00000	4729.10500
0.75644	0.00000	4729.10500
0.76030	0.00000	4729.10500
0.76416	0.00000	4737.72300
0.76817	0.00000	4737.72300
0.77458	0.00000	4737.72300
0.77871	0.00000	4737.72300
0.78357	0.00000	4737.72300
0.78769	0.00000	4735.21700
0.79177	0.00000	4735.21700
0.79771	0.00000	4735.21700
0.80524	0.00000	4735.21700
0.80934	0.00000	4718.37600
0.81342	0.00000	4718.37600
0.81748	0.00000	4718.37600
0.82154	0.00000	4718.37600
0.82562	0.00000	4718.37600
0.82993	0.00000	4734.93300
0.83402	0.00000	4734.93300
0.83800	0.00000	4734.93300
0.84206	0.00000	4734.93300
0.84638	0.00000	4734.93300
0.85534	0.00000	4707.03100
0.85943	0.00000	4707.03100
0.86391	0.00000	4707.03100
0.86800	0.00000	4707.03100
0.87203	0.00000	4707.03100
0.87677	0.00000	4723.77200
0.88086	0.00000	4723.77200
0.88494	0.00000	4723.77200
0.88898	0.00000	4723.77200
0.89290	0.00000	4723.77200
0.89674	0.00000	4746.09400
0.90061	0.00000	4746.09400
0.90464	0.00000	4746.09400
0.90876	0.00000	4746.09400
0.91374	0.00000	4746.09400
0.91822	0.00000	4718.19200
0.92253	0.00000	4718.19200
0.92654	0.00000	4718.19200
0.93063	0.00000	4718.19200
0.93682	0.00000	4718.19200
0.94093	0.00000	4720.98200
0.94543	0.00000	4720.98200
0.94953	0.00000	4720.98200
0.95368	0.00000	4720.98200
0.95773	0.00000	4720.98200
0.96182	0.00000	4695.82100
0.96588	0.00000	4695.82100
0.96995	0.00000	4695.82100
0.97412	0.00000	4695.82100
0.97825	0.00000	4695.82100
0.98261	0.00000	4695.82100
0.98719	0.00000	4720.78400
0.99140	0.00000	4720.78400
0.99598	0.00000	4720.78400
1.00001	0.00000	4720.78400
1.00434	0.00000	4720.78400
1.00877	0.00000	4723.77200
1.01295	0.00000	4723.77200
1.01704	0.00000	4723.77200
1.02111	0.00000	4723.77200
1.02516	0.00000	4723.77200
1.02922	0.00000	4729.35200
1.03329	0.00000	4729.35200
1.03756	0.00000	4729.35200
1.04215	0.00000	4729.35200
1.04628	0.00000	4729.35200
1.05075	0.00000	4723.77200
1.05678	0.00000	4723.77200
1.06091	0.00000	4723.77200
1.06499	0.00000	4723.77200
1.06903	0.00000	4723.77200
1.07302	0.00000	4693.04700
1.07703	0.00000	4693.04700
1.08172	0.00000	4693.04700
1.08584	0.00000	4693.04700
1.08994	0.00000	4693.04700
1.09399	0.00000	4715.40200
1.09794	0.00000	4715.40200
1.10188	0.00000	4715.40200
1.10654	0.00000	4715.40200
1.11071	0.00000	4715.40200
1.11471	0.00000	4715.40200
1.11870	0.00000	4718.01000
1.12269	0.00000	4718.01000
1.12665	0.00000	4718.01000
1.13073	0.00000	4718.01000
1.13489	0.00000	4718.01000
1.13886	0.00000	4723.77200
1.14275	0.00000	4723.77200
1.14682	0.00000	4723.77200
1.15132	0.00000	4723.77200
1.15525	0.00000	4723.77200
1.15916	0.00000	4723.77200
1.16308	0.00000	4701.36800
1.16694	0.00000	4701.36800
1.17081	0.00000	4701.36800
1.17463	0.00000	4701.36800
1.17844	0.00000	4701.36800
1.18225	0.00000	4738.02400
1.18608	0.00000	4738.02400
1.18988	0.00000	4738.02400
1.19371	0.00000	4738.02400
1.19752	0.00000	4738.02400
1.20134	0.00000	4738.02400
1.20515	0.00000	4715.23700
1.20896	0.00000	4715.23700
1.21273	0.00000	4715.23700
1.21654	0.00000	4715.23700
1.22035	0.00000	4715.23700
1.22415	0.00000	4715.23700
1.22797	0.00000	4706.91500
1.23178	0.00000	4706.91500
1.23558	0.00000	4706.91500
1.23940	0.00000	4706.91500
1.24321	0.00000	4706.91500
1.24703	0.00000	4706.91500
1.25085	0.00000	4732.14200
1.25476	0.00000	4732.14200
1.25873	0.00000	4732.14200
1.26256	0.00000	4732.14200
1.26640	0.00000	4732.14200
1.27024	0.00000	4709.82100
1.27406	0.00000	4709.82100
1.27787	0.00000	4709.82100
1.28168	0.00000	4709.82100
1.28551	0.00000	4709.82100
1.28933	0.00000	4709.82100
1.29315	0.00000	4701.36800
1.29697	0.00000	4701.36800
1.30079	0.00000	4701.36800
1.30459	0.00000	4701.36800
1.30840	0.00000	4701.36800
1.31222	0.00000	4701.36800
1.31603	0.00000	4715.23700
1.31985	0.00000	4715.23700
1.32368	0.00000	4715.23700
1.32748	0.00000	4715.23700
1.33129	0.00000	4715.23700
1.33511	0.00000	4715.23700
1.33892	0.00000	4706.91500
1.34273	0.00000	4706.91500
1.34654	0.00000	4706.91500
1.35035	0.00000	4706.91500
1.35417	0.00000	4706.91500
1.35799	0.00000	4712.61200
1.36179	0.00000	4712.61200
1.36561	0.00000	4712.61200
1.36941	0.00000	4712.61200
1.37322	0.00000	4712.61200
1.37704	0.00000	4712.61200
1.38084	0.00000	4729.35200
1.38466	0.00000	4729.35200
1.38847	0.00000	4729.35200
1.39228	0.00000	4729.35200
1.39609	0.00000	4729.35200
1.39993	0.00000	4729.35200
1.40375	0.00000	4718.01000
1.40757	0.00000	4718.01000
1.41139	0.00000	4718.01000
1.41520	0.00000	4718.01000
1.41901	0.00000	4718.01000
1.42282	0.00000	4718.01000
1.42663	0.00000	4712.46300
1.43045	0.00000	4712.46300
1.43425	0.00000	4712.46300
1.43807	0.00000	4712.46300
1.44188	0.00000	4712.46300
1.44569	0.00000	4712.46300
1.44949	0.00000	4737.72300
1.45330	0.00000	4737.72300
1.45711	0.00000	4737.72300
1.46092	0.00000	4737.72300
1.46474	0.00000	4737.72300
1.46857	0.00000	4707.03100
1.47239	0.00000	4707.03100
1.47620	0.00000	4707.03100
1.48000	0.00000	4707.03100
1.48381	0.00000	4707.03100
1.48761	0.00000	4707.03100
1.49143	0.00000	4712.46300
1.49523	0.00000	4712.46300
1.49904	0.00000	4712.46300
1.50285	0.00000	4712.46300
1.50667	0.00000	4712.46300
1.51048	0.00000	4712.46300
1.51430	0.00000	4718.01000
1.51812	0.00000	4718.01000
1.52194	0.00000	4718.01000
1.52580	0.00000	4718.01000
1.52974	0.00000	4718.01000
1.53371	0.00000	4718.01000
1.53764	0.00000	4701.36800
1.54153	0.00000	4701.36800
1.54543	0.00000	4701.36800
1.54928	0.00000	4701.36800
1.55310	0.00000	4701.36800
1.55693	0.00000	4720.98200
1.56081	0.00000	4720.98200
1.56465	0.00000	4720.98200
1.56846	0.00000	4720.98200
1.57227	0.00000	4720.98200
1.57608	0.00000	4720.98200
1.57989	0.00000	4706.91500
1.58370	0.00000	4706.91500
1.58751	0.00000	4706.91500
1.59131	0.00000	4706.91500
1.59512	0.00000	4706.91500
1.59894	0.00000	4706.91500
1.60275	0.00000	4712.46300
1.60656	0.00000	4712.46300
1.61037	0.00000	4712.46300
1.61419	0.00000	4712.46300
1.61799	0.00000	4712.46300
1.62180	0.00000	4712.46300
1.62561	0.00000	4695.77200
1.62945	0.00000	4695.77200
1.63328	0.00000	4695.77200
1.63712	0.00000	4695.77200
1.64095	0.00000	4695.77200
1.64473	0.00000	4704.24100
1.64856	0.00000	4704.24100
1.65237	0.00000	4704.24100
1.65621	0.00000	4704.24100
1.66002	0.00000	4704.24100
1.66385	0.00000	4704.24100
1.66767	0.00000	4701.36800
1.67147	0.00000	4701.36800
1.67529	0.00000	4701.36800
1.67910	0.00000	4701.36800
1.68292	0.00000	4701.36800
1.68672	0.00000	4701.36800
1.69054	0.00000	4706.91500
1.69436	0.00000	4706.91500
1.69817	0.00000	4706.91500
1.70198	0.00000	4706.91500
1.70579	0.00000	4706.91500
1.70960	0.00000	4706.91500
1.71341	0.00000	4709.68900
1.71722	0.00000	4709.68900
1.72103	0.00000	4709.68900
1.72483	0.00000	4709.68900
1.72864	0.00000	4709.68900
1.73246	0.00000	4712.61200
1.73627	0.00000	4712.61200
1.74008	0.00000	4712.61200
1.74389	0.00000	4712.61200
1.74770	0.00000	4712.61200
1.75152	0.00000	4712.61200
1.75534	0.00000	4726.56200
1.75915	0.00000	4726.56200
1.76296	0.00000	4726.56200
1.76676	0.00000	4726.56200
1.77057	0.00000	4726.56200
1.77438	0.00000	4726.56200
1.77820	0.00000	4698.52900
1.78201	0.00000	4698.52900
1.78582	0.00000	4698.52900
1.78962	0.00000	4698.52900
1.79344	0.00000	4698.52900
1.79730	0.00000	4698.52900
1.80115	0.00000	4726.33100
1.80497	0.00000	4726.33100
1.80878	0.00000	4726.33100
1.81259	0.00000	4726.33100
1.81640	0.00000	4726.33100
1.82021	0.00000	4726.33100
1.82402	0.00000	4706.91500
1.82785	0.00000	4706.91500
1.83166	0.00000	4706.91500
1.83548	0.00000	4706.91500
1.83929	0.00000	4706.91500
1.84315	0.00000	4720.98200
1.84698	0.00000	4720.98200
1.85080	0.00000	4720.98200
1.85469	0.00000	4720.98200
1.85866	0.00000	4720.98200
1.86250	0.00000	4720.98200
1.86636	0.00000	4712.46300
1.87018	0.00000	4712.46300
1.87400	0.00000	4712.46300
1.87781	0.00000	4712.46300
1.88163	0.00000	4712.46300
1.88545	0.00000	4712.46300
1.88926	0.00000	4723.55700
1.89307	0.00000	4723.55700
1.89689	0.00000	4723.55700
1.90071	0.00000	4723.55700
1.90452	0.00000	4723.55700
1.90833	0.00000	4723.55700
1.91213	0.00000	4734.93300
1.91594	0.00000	4734.93300
1.91974	0.00000	4734.93300
1.92356	0.00000	4734.93300
1.92738	0.00000	4734.93300
1.93119	0.00000	4709.82100
1.93499	0.00000	4709.82100
1.93880	0.00000	4709.82100
1.94261	0.00000	4709.82100
1.94642	0.00000	4709.82100
1.95024	0.00000	4709.82100
1.95406	0.00000	4706.91500
1.95786	0.00000	4706.91500
1.96167	0.00000	4706.91500
1.96547	0.00000	4706.91500
1.96928	0.00000	4706.91500
1.97309	0.00000	4706.91500
1.97689	0.00000	4684.74200
1.98070	0.00000	4684.74200
1.98452	0.00000	4684.74200
1.98833	0.00000	4684.74200
1.99215	0.00000	4684.74200
1.99595	0.00000	4684.74200
1.99977	0.00000	4715.23700
2.00357	0.00000	4715.23700
2.00738	0.00000	4715.23700
2.01118	0.00000	4715.23700
2.01499	0.00000	4715.23700
2.01880	0.00000	4712.61200
2.02261	0.00000	4712.61200
2.02643	0.00000	4712.61200
2.03025	0.00000	4712.61200
2.03406	0.00000	4712.61200
2.03896	0.00000	4712.61200
2.04294	0.00000	4715.40200
2.04694	0.00000	4715.40200
2.05083	0.00000	4715.40200
2.05476	0.00000	4715.40200
2.05861	0.00000	4715.40200
2.06243	0.00000	4715.40200
2.06626	0.00000	4734.93300
2.07009	0.00000	4734.93300
2.07392	0.00000	4734.93300
2.07773	0.00000	4734.93300
2.08156	0.00000	4734.93300
2.08542	0.00000	4715.40200
2.08927	0.00000	4715.40200
2.09309	0.00000	4715.40200
2.09691	0.00000	4715.40200
2.10073	0.00000	4715.40200
2.10454	0.00000	4715.40200
2.10836	0.00000	4693.01400
2.11217	0.00000	4693.01400
2.11599	0.00000	4693.01400
2.11980	0.00000	4693.01400
2.12362	0.00000	4693.01400
2.12744	0.00000	4693.01400
2.13124	0.00000	4720.78400
2.13505	0.00000	4720.78400
2.13887	0.00000	4720.78400
2.14268	0.00000	4720.78400
2.14650	0.00000	4720.78400
2.15032	0.00000	4720.78400
2.15416	0.00000	4709.68900
2.15800	0.00000	4709.68900
2.16181	0.00000	4709.68900
2.16563	0.00000	4709.68900
2.16945	0.00000	4709.68900
2.17325	0.00000	4715.40200
2.17707	0.00000	4715.40200
2.18101	0.00000	4715.40200
2.18499	0.00000	4715.40200
2.18898	0.00000	4715.40200
2.19282	0.00000	4715.40200
2.19664	0.00000	4720.98200
2.20050	0.00000	4720.98200
2.20433	0.00000	4720.98200
2.20815	0.00000	4720.98200
2.21202	0.00000	4720.98200
2.21587	0.00000	4720.98200
2.21971	0.00000	4709.68900
2.22354	0.00000	4709.68900
2.22738	0.00000	4709.68900
2.23120	0.00000	4709.68900
2.23503	0.00000	4709.68900
2.23885	0.00000	4709.68900
2.24266	0.00000	4712.61200
2.24648	0.00000	4712.61200
2.25030	0.00000	4712.61200
2.25412	0.00000	4712.61200
2.25794	0.00000	4712.61200
2.26175	0.00000	4695.87000
2.26556	0.00000	4695.87000
2.26938	0.00000	4695.87000
2.27319	0.00000	4695.87000
2.27701	0.00000	4695.87000
2.28082	0.00000	4695.87000
2.28464	0.00000	4729.35200
2.28848	0.00000	4729.35200
2.29230	0.00000	4729.35200
2.29612	0.00000	4729.35200
2.29995	0.00000	4729.35200
2.30377	0.00000	4729.35200
2.30758	0.00000	4704.14200
2.31140	0.00000	4704.14200
2.31521	0.00000	4704.14200
2.31901	0.00000	4704.14200
2.32282	0.00000	4704.14200
2.32664	0.00000	4704.14200
2.33045	0.00000	4698.59400
2.33431	0.00000	4698.59400
2.33828	0.00000	4698.59400
2.34213	0.00000	4698.59400
2.34595	0.00000	4698.59400
2.34978	0.00000	4709.82100
2.35361	0.00000	4709.82100
2.35744	0.00000	4709.82100
2.36126	0.00000	4709.82100
2.36507	0.00000	4709.82100
2.36892	0.00000	4709.82100
2.37287	0.00000	4704.14200
2.37670	0.00000	4704.14200
2.38061	0.00000	4704.14200
2.38471	0.00000	4704.14200
2.38868	0.00000	4704.14200
2.39269	0.00000	4704.14200
2.39652	0.00000	4709.68900
2.40038	0.00000	4709.68900
2.40422	0.00000	4709.68900
2.40804	0.00000	4709.68900
2.41186	0.00000	4709.68900
2.41568	0.00000	4693.08000
2.41952	0.00000	4693.08000
2.42334	0.00000	4693.08000
2.42715	0.00000	4693.08000
2.43096	0.00000	4693.08000
2.43480	0.00000	4693.08000
2.43861	0.00000	4701.36800
2.44243	0.00000	4701.36800
2.44625	0.00000	4701.36800
2.45011	0.00000	4701.36800
2.45393	0.00000	4701.36800
2.45776	0.00000	4701.36800
2.46157	0.00000	4695.82100
2.46539	0.00000	4695.82100
2.46921	0.00000	4695.82100
2.47302	0.00000	4695.82100
2.47683	0.00000	4695.82100
2.48063	0.00000	4695.82100
2.48445	0.00000	4695.82100
2.48826	0.00000	4695.82100
2.49216	0.00000	4695.82100
2.49624	0.00000	4695.82100
2.50030	0.00000	4695.82100
2.50414	0.00000	4698.66000
2.50795	0.00000	4698.66000
2.51177	0.00000	4698.66000
2.51558	0.00000	4698.66000
2.51942	0.00000	4698.66000
2.52324	0.00000	4698.66000
2.52717	0.00000	4709.68900
2.53116	0.00000	4709.68900
2.53504	0.00000	4709.68900
2.53889	0.00000	4709.68900
2.54272	0.00000	4709.68900
2.54653	0.00000	4709.68900
2.55034	0.00000	4695.82100
2.55415	0.00000	4695.82100
2.55797	0.00000	4695.82100
2.56182	0.00000	4695.82100
2.56568	0.00000	4695.82100
2.56951	0.00000	4698.66000
2.57334	0.00000	4698.66000
2.57715	0.00000	4698.66000
2.58096	0.00000	4698.66000
2.58473	0.00000	4698.66000
2.58853	0.00000	4698.66000
2.59234	0.00000	4690.27400
2.59616	0.00000	4690.27400
2.59999	0.00000	4690.27400
2.60384	0.00000	4690.27400
2.60767	0.00000	4690.27400
2.61149	0.00000	4690.27400
2.61530	0.00000	4698.59400
2.61911	0.00000	4698.59400
2.62293	0.00000	4698.59400
2.62678	0.00000	4698.59400
2.63060	0.00000	4698.59400
2.63441	0.00000	4698.59400
2.63823	0.00000	4693.04700
2.64206	0.00000	4693.04700
2.64588	0.00000	4693.04700
2.64969	0.00000	4693.04700
2.65351	0.00000	4693.04700
2.65737	0.00000	4690.29000
2.66123	0.00000	4690.29000
2.66505	0.00000	4690.29000
2.66888	0.00000	4690.29000
2.67269	0.00000	4690.29000
2.67652	0.00000	4690.29000
2.68033	0.00000	4706.91500
2.68413	0.00000	4706.91500
2.68793	0.00000	4706.91500
2.69175	0.00000	4706.91500
2.69556	0.00000	4706.91500
2.69937	0.00000	4706.91500
2.70318	0.00000	4698.59400
2.70700	0.00000	4698.59400
2.71081	0.00000	4698.59400
2.71463	0.00000	4698.59400
2.71843	0.00000	4698.59400
2.72224	0.00000	4698.59400
2.72606	0.00000	4690.27400
2.72987	0.00000	4690.27400
2.73367	0.00000	4690.27400
2.73747	0.00000	4690.27400
2.74128	0.00000	4690.27400
2.74510	0.00000	4701.45100
2.74890	0.00000	4701.45100
2.75271	0.00000	4701.45100
2.75652	0.00000	4701.45100
2.76035	0.00000	4701.45100
2.76417	0.00000	4701.45100
2.76798	0.00000	4707.03100
2.77179	0.00000	4707.03100
2.77561	0.00000	4707.03100
2.77942	0.00000	4707.03100
2.78325	0.00000	4707.03100
2.78707	0.00000	4707.03100
2.79089	0.00000	4704.14200
2.79470	0.00000	4704.14200
2.79851	0.00000	4704.14200
2.80232	0.00000	4704.14200
2.80613	0.00000	4704.14200
2.80994	0.00000	4704.14200
2.81376	0.00000	4704.14200
2.81758	0.00000	4704.14200
2.82140	0.00000	4704.14200
2.82520	0.00000	4704.14200
2.82902	0.00000	4704.14200
2.83283	0.00000	4704.14200
2.83663	0.00000	4715.40200
2.84043	0.00000	4715.40200
2.84423	0.00000	4715.40200
2.84804	0.00000	4715.40200
2.85185	0.00000	4715.40200
2.85566	0.00000	4718.37600
2.85948	0.00000	4718.37600
2.86328	0.00000	4718.37600
2.86710	0.00000	4718.37600
2.87091	0.00000	4718.37600
2.87472	0.00000	4718.37600
2.87852	0.00000	4718.19200
2.88233	0.00000	4718.19200
2.88614	0.00000	4718.19200
2.88995	0.00000	4718.19200
2.89376	0.00000	4718.19200
2.89757	0.00000	4718.19200
2.90137	0.00000	4715.40200
2.90519	0.00000	4715.40200
2.90899	0.00000	4715.40200
2.91279	0.00000	4715.40200
2.91660	0.00000	4715.40200
2.92041	0.00000	4715.40200
2.92423	0.00000	4712.61200
2.92803	0.00000	4712.61200
2.93185	0.00000	4712.61200
2.93565	0.00000	4712.61200
2.93947	0.00000	4712.61200
2.94329	0.00000	4726.79600
2.94713	0.00000	4726.79600
2.95093	0.00000	4726.79600
2.95474	0.00000	4726.79600
2.95856	0.00000	4726.79600
2.96236	0.00000	4726.79600
2.96616	0.00000	4718.19200
2.96999	0.00000	4718.19200
2.97381	0.00000	4718.19200
2.97763	0.00000	4718.19200
2.98146	0.00000	4718.19200
2.98542	0.00000	4718.19200
2.98934	0.00000	4723.77200
2.99327	0.00000	4723.77200
2.99722	0.00000	4723.77200
3.00121	0.00000	4723.77200
3.00526	0.00000	4723.77200
3.00931	0.00000	4701.45100
3.01360	0.00000	4701.45100
3.01763	0.00000	4701.45100
3.02155	0.00000	4701.45100
3.02541	0.00000	4701.45100
3.03028	0.00000	4701.45100
3.03423	0.00000	4698.59400
3.03810	0.00000	4698.59400
3.04194	0.00000	4698.59400
3.04578	0.00000	4698.59400
3.04964	0.00000	4698.59400
3.05347	0.00000	4690.29000
3.05730	0.00000	4690.29000
3.06113	0.00000	4690.29000
3.06604	0.00000	4690.29000
3.06993	0.00000	4690.29000
3.07377	0.00000	4690.29000
3.07758	0.00000	4709.68900
3.08142	0.00000	4709.68900
3.08529	0.00000	4709.68900
3.08913	0.00000	4709.68900
3.09298	0.00000	4709.68900
3.09682	0.00000	4701.45100
3.10064	0.00000	4701.45100
3.10445	0.00000	4701.45100
3.10827	0.00000	4701.45100
3.11209	0.00000	4701.45100
3.11619	0.00000	4701.45100
3.12040	0.00000	4701.45100
3.12449	0.00000	4701.45100
3.12839	0.00000	4701.45100
3.13226	0.00000	4701.45100
3.13641	0.00000	4701.45100
3.14031	0.00000	4701.45100
3.14413	0.00000	4698.59400
3.14799	0.00000	4698.59400
3.15218	0.00000	4698.59400
3.15618	0.00000	4698.59400
3.16002	0.00000	4698.59400
3.16450	0.00000	4701.45100
3.16872	0.00000	4701.45100
3.17272	0.00000	4701.45100
3.17657	0.00000	4701.45100
3.18066	0.00000	4701.45100
3.18481	0.00000	4698.66000
3.18890	0.00000	4698.66000
3.19274	0.00000	4698.66000
3.19671	0.00000	4698.66000
3.20090	0.00000	4698.66000
3.20496	0.00000	4698.66000
3.20893	0.00000	4715.40200
3.21289	0.00000	4715.40200
3.21707	0.00000	4715.40200
3.22124	0.00000	4715.40200
3.22546	0.00000	4715.40200
3.22963	0.00000	4693.08000
3.23477	0.00000	4693.08000
3.24017	0.00000	4693.08000
3.24424	0.00000	4693.08000
3.24839	0.00000	4693.08000
3.25264	0.00000	4732.41000
3.25751	0.00000	4732.41000
3.26171	0.00000	4732.41000
3.26619	0.00000	4732.41000
3.27036	0.00000	4732.41000
3.27435	0.00000	4723.98900
3.27844	0.00000	4723.98900
3.28236	0.00000	4723.98900
3.28643	0.00000	4723.98900
3.29030	0.00000	4723.98900
3.29416	0.00000	4701.45100
3.29807	0.00000	4701.45100
3.30219	0.00000	4701.45100
3.30607	0.00000	4701.45100
3.31017	0.00000	4701.45100
3.31443	0.00000	4701.45100
3.31857	0.00000	4709.82100
3.32254	0.00000	4709.82100
3.32641	0.00000	4709.82100
3.33080	0.00000	4709.82100
3.33504	0.00000	4709.82100
3.33912	0.00000	4723.98900
3.34298	0.00000	4723.98900
3.34698	0.00000	4723.98900
3.35119	0.00000	4723.98900
3.35532	0.00000	4723.98900
3.35924	0.00000	4723.98900
3.36363	0.00000	4701.36800
3.36786	0.00000	4701.36800
3.37192	0.00000	4701.36800
3.37592	0.00000	4701.36800
3.37985	0.00000	4701.36800
3.38479	0.00000	4695.87000
3.38911	0.00000	4695.87000
3.39315	0.00000	4695.87000
3.40066	0.00000	4695.87000
3.40811	0.00000	4695.92100
3.41236	0.00000	4695.92100
3.41742	0.00000	4695.92100
3.42223	0.00000	4695.92100
3.42720	0.00000	4715.73800
3.43128	0.00000	4715.73800
3.43558	0.00000	4715.73800
3.43973	0.00000	4715.73800
3.44407	0.00000	4715.73800
3.44817	0.00000	4721.18200
3.45289	0.00000	4721.18200
3.45719	0.00000	4721.18200
3.46127	0.00000	4721.18200
3.46531	0.00000	4721.18200
3.46952	0.00000	4704.24100
3.47449	0.00000	4704.24100
3.47873	0.00000	4704.24100
3.48330	0.00000	4704.24100
3.48758	0.00000	4704.24100
3.49221	0.00000	4712.76100
3.49642	0.00000	4712.76100
3.50067	0.00000	4712.76100
3.50482	0.00000	4712.76100
3.50906	0.00000	4712.76100
3.51325	0.00000	4720.98200
3.51747	0.00000	4720.98200
3.52161	0.00000	4720.98200
3.52562	0.00000	4720.98200
3.53052	0.00000	4720.98200
3.53568	0.00000	4704.24100
3.54053	0.00000	4704.24100
3.54462	0.00000	4704.24100
3.54862	0.00000	4704.24100
3.55286	0.00000	4704.24100
3.55684	0.00000	4704.24100
3.56070	0.00000	4718.19200
3.56462	0.00000	4718.19200
3.56875	0.00000	4718.19200
3.57273	0.00000	4718.19200
3.57662	0.00000	4718.19200
3.58049	0.00000	4712.61200
3.58463	0.00000	4712.61200
3.58855	0.00000	4712.61200
3.59239	0.00000	4712.61200
3.59623	0.00000	4712.61200
3.60020	0.00000	4712.61200
3.60435	0.00000	4709.82100
3.60821	0.00000	4709.82100
3.61203	0.00000	4709.82100
3.61590	0.00000	4709.82100
3.62006	0.00000	4709.82100
3.62390	0.00000	4723.98900
3.62775	0.00000	4723.98900
3.63159	0.00000	4723.98900
3.63570	0.00000	4723.98900
3.63959	0.00000	4723.98900
3.64340	0.00000	4723.98900
3.64725	0.00000	4726.56200
3.65137	0.00000	4726.56200
3.65524	0.00000	4726.56200
3.65907	0.00000	4726.56200
3.66289	0.00000	4726.56200
3.66686	0.00000	4701.45100
3.67099	0.00000	4701.45100
3.67487	0.00000	4701.45100
3.67870	0.00000	4701.45100
3.68256	0.00000	4701.45100
3.68666	0.00000	4701.45100
3.69052	0.00000	4690.27400
3.69435	0.00000	4690.27400
3.69822	0.00000	4690.27400
3.70277	0.00000	4690.27400
3.70675	0.00000	4690.27400
3.71060	0.00000	4690.27400
3.71443	0.00000	4720.98200
3.71835	0.00000	4720.98200
3.72219	0.00000	4720.98200
3.72618	0.00000	4720.98200
3.73004	0.00000	4720.98200
3.73403	0.00000	4701.45100
3.73798	0.00000	4701.45100
3.74182	0.00000	4701.45100
3.74564	0.00000	4701.45100
3.74951	0.00000	4701.45100
3.75354	0.00000	4701.45100
3.75740	0.00000	4701.36800
3.76122	0.00000	4701.36800
3.76505	0.00000	4701.36800
3.76913	0.00000	4701.36800
3.77301	0.00000	4701.36800
3.77683	0.00000	4704.24100
3.78065	0.00000	4704.24100
3.78466	0.00000	4704.24100
3.78859	0.00000	4704.24100
3.79241	0.00000	4704.24100
3.79624	0.00000	4704.24100
3.80013	0.00000	4712.61200
3.80411	0.00000	4712.61200
3.80795	0.00000	4712.61200
3.81177	0.00000	4712.61200
3.81559	0.00000	4712.61200
3.81961	0.00000	4712.61200
3.82347	0.00000	4704.14200
3.82728	0.00000	4704.14200
3.83111	0.00000	4704.14200
3.83508	0.00000	4704.14200
3.83908	0.00000	4704.14200
3.84300	0.00000	4715.56900
3.84686	0.00000	4715.56900
3.85081	0.00000	4715.56900
3.85478	0.00000	4715.56900
3.85868	0.00000	4715.56900
3.86255	0.00000	4715.56900
3.86656	0.00000	4712.46300
3.87064	0.00000	4712.46300
3.87449	0.00000	4712.46300
3.87831	0.00000	4712.46300
3.88227	0.00000	4712.46300
3.88645	0.00000	4695.87000
3.89045	0.00000	4695.87000
3.89428	0.00000	4695.87000
3.89813	0.00000	4695.87000
3.90228	0.00000	4695.87000
3.90626	0.00000	4695.87000
3.91009	0.00000	4693.08000
3.91393	0.00000	4693.08000
3.91796	0.00000	4693.08000
3.92194	0.00000	4693.08000
3.92577	0.00000	4693.08000
3.92959	0.00000	4693.08000
3.93402	0.00000	4698.59400
3.93803	0.00000	4698.59400
3.94189	0.00000	4698.59400
3.94570	0.00000	4698.59400
3.94961	0.00000	4698.59400
3.95363	0.00000	4723.98900
3.95751	0.00000	4723.98900
3.96132	0.00000	4723.98900
3.96515	0.00000	4723.98900
3.96926	0.00000	4723.98900
3.97314	0.00000	4723.98900
3.97695	0.00000	4720.98200
3.98140	0.00000	4720.98200
3.98556	0.00000	4720.98200
3.98955	0.00000	4720.98200
3.99339	0.00000	4720.98200
3.99768	0.00000	4709.82100
4.00182	0.00000	4709.82100
4.00580	0.00000	4709.82100
4.00964	0.00000	4709.82100
4.01364	0.00000	4709.82100
4.01769	0.00000	4709.82100
4.02173	0.00000	4690.27400
4.02559	0.00000	4690.27400
4.02952	0.00000	4690.27400
4.03352	0.00000	4690.27400
4.03757	0.00000	4690.27400
4.04144	0.00000	4695.87000
4.04527	0.00000	4695.87000
4.04917	0.00000	4695.87000
4.05329	0.00000	4695.87000
4.05717	0.00000	4695.87000
4.06099	0.00000	4695.87000
4.06484	0.00000	4709.68900
4.06899	0.00000	4709.68900
4.07292	0.00000	4709.68900
4.07673	0.00000	4709.68900
4.08057	0.00000	4709.68900
4.08471	0.00000	4704.24100
4.08872	0.00000	4704.24100
4.09258	0.00000	4704.24100
4.09644	0.00000	4704.24100
4.10048	0.00000	4704.24100
4.10459	0.00000	4704.24100
4.10856	0.00000	4709.68900
4.11245	0.00000	4709.68900
4.11650	0.00000	4709.68900
4.12062	0.00000	4709.68900
4.12449	0.00000	4709.68900
4.12831	0.00000	4709.82100
4.13223	0.00000	4709.82100
4.13637	0.00000	4709.82100
4.14034	0.00000	4709.82100
4.14419	0.00000	4709.82100
4.14804	0.00000	4709.82100
4.15222	0.00000	4715.56900
4.15617	0.00000	4715.56900
4.16002	0.00000	4715.56900
4.16408	0.00000	4715.56900
4.16828	0.00000	4715.56900
4.17224	0.00000	4718.37600
4.17606	0.00000	4718.37600
4.17989	0.00000	4718.37600
4.18394	0.00000	4718.37600
4.18793	0.00000	4718.37600
4.19177	0.00000	4718.37600
4.19561	0.00000	4701.45100
4.19954	0.00000	4701.45100
4.20363	0.00000	4701.45100
4.20747	0.00000	4701.45100
4.21129	0.00000	4701.45100
4.21513	0.00000	4701.45100
4.21930	0.00000	4693.04700
4.22328	0.00000	4693.04700
4.22727	0.00000	4693.04700
4.23119	0.00000	4693.04700
4.23533	0.00000	4693.04700
4.23929	0.00000	4701.45100
4.24314	0.00000	4701.45100
4.24702	0.00000	4701.45100
4.25124	0.00000	4701.45100
4.25520	0.00000	4701.45100
4.25904	0.00000	4701.45100
4.26287	0.00000	4695.82100
4.26677	0.00000	4695.82100
4.27085	0.00000	4695.82100
4.27474	0.00000	4695.82100
4.27855	0.00000	4695.82100
4.28242	0.00000	4698.66000
4.28661	0.00000	4698.66000
4.29051	0.00000	4698.66000
4.29436	0.00000	4698.66000
4.29828	0.00000	4698.66000
4.30245	0.00000	4698.66000
4.30641	0.00000	4709.68900
4.31025	0.00000	4709.68900
4.31437	0.00000	4709.68900
4.31853	0.00000	4709.68900
4.32252	0.00000	4709.68900
4.32640	0.00000	4712.76100
4.33037	0.00000	4712.76100
4.33484	0.00000	4712.76100
4.33898	0.00000	4712.76100
4.34301	0.00000	4712.76100
4.34698	0.00000	4712.76100
4.35225	0.00000	4712.61200
4.35643	0.00000	4712.61200
4.36035	0.00000	4712.61200
4.36421	0.00000	4712.61200
4.36839	0.00000	4712.61200
4.37240	0.00000	4715.56900
4.37627	0.00000	4715.56900
4.38011	0.00000	4715.56900
4.38419	0.00000	4715.56900
4.38819	0.00000	4715.56900
4.39203	0.00000	4738.02400
4.39603	0.00000	4738.02400
4.39992	0.00000	4738.02400
4.40405	0.00000	4738.02400
4.40795	0.00000	4738.02400
4.41179	0.00000	4738.02400
4.41578	0.00000	4704.24100
4.41996	0.00000	4704.24100
4.42396	0.00000	4704.24100
4.42781	0.00000	4704.24100
4.43211	0.00000	4704.24100
4.43677	0.00000	4712.76100
4.44147	0.00000	4712.76100
4.44589	0.00000	4712.76100
4.45162	0.00000	4712.76100
4.45723	0.00000	4693.11400
4.46158	0.00000	4693.11400
4.46767	0.00000	4693.11400
4.47188	0.00000	4693.11400
4.47589	0.00000	4693.11400
4.48086	0.00000	4701.53400
4.48512	0.00000	4701.53400
4.48928	0.00000	4701.53400
4.49320	0.00000	4701.53400
4.49713	0.00000	4701.53400
4.50126	0.00000	4704.24100
4.50525	0.00000	4704.24100
4.50914	0.00000	4704.24100
4.51318	0.00000	4704.24100
4.51787	0.00000	4704.24100
4.52198	0.00000	4704.24100
4.52593	0.00000	4693.04700
4.53000	0.00000	4693.04700
4.53541	0.00000	4693.04700
4.53951	0.00000	4693.04700
4.54387	0.00000	4693.04700
4.55005	0.00000	4695.87000
4.55429	0.00000	4695.87000
4.55868	0.00000	4695.87000
4.56412	0.00000	4695.87000
4.56835	0.00000	4690.30700
4.57246	0.00000	4690.30700
4.57653	0.00000	4690.30700
4.58076	0.00000	4690.30700
4.58498	0.00000	4690.30700
4.58907	0.00000	4693.08000
4.59493	0.00000	4693.08000
4.60231	0.00000	4693.08000
4.60658	0.00000	4693.08000
4.61087	0.00000	4695.92100
4.61500	0.00000	4695.92100
4.61924	0.00000	4695.92100
4.62632	0.00000	4695.92100
4.63041	0.00000	4695.92100
4.63466	0.00000	4698.66000
4.63896	0.00000	4698.66000
4.64483	0.00000	4698.66000
4.64895	0.00000	4698.66000
4.65314	0.00000	4698.66000
4.65765	0.00000	4701.45100
4.66175	0.00000	4701.45100
4.66601	0.00000	4701.45100
4.67020	0.00000	4701.45100
4.67435	0.00000	4701.45100
4.67992	0.00000	4690.29000
4.68880	0.00000	4690.29000
4.69298	0.00000	4690.29000
4.69705	0.00000	4690.29000
4.70117	0.00000	4690.30700
4.70523	0.00000	4690.30700
4.71111	0.00000	4690.30700
4.71530	0.00000	4690.30700
4.71949	0.00000	4693.11400
4.72407	0.00000	4693.11400
4.73021	0.00000	4693.11400
4.73435	0.00000	4693.11400
4.73843	0.00000	4693.11400
4.74249	0.00000	4715.56900
4.74766	0.00000	4715.56900
4.75396	0.00000	4715.56900
4.75812	0.00000	4715.56900
4.76226	0.00000	4715.73800
4.76806	0.00000	4715.73800
4.77219	0.00000	4715.73800
4.77655	0.00000	4715.73800
4.78301	0.00000	4715.73800
4.78708	0.00000	4715.56900
4.79131	0.00000	4715.56900
4.79560	0.00000	4715.56900
4.80143	0.00000	4715.56900
4.80571	0.00000	4715.56900
4.81002	0.00000	4715.56900
4.81494	0.00000	4715.56900
4.81932	0.00000	4715.56900
4.82373	0.00000	4715.56900
4.82838	0.00000	4690.30700
4.83461	0.00000	4690.30700
4.84162	0.00000	4690.30700
4.84590	0.00000	4690.30700
4.85125	0.00000	4681.88600
4.85698	0.00000	4681.88600
4.86123	0.00000	4681.88600
4.86549	0.00000	4681.88600
4.86981	0.00000	4681.88600
4.87399	0.00000	4712.76100
4.87802	0.00000	4712.76100
4.88215	0.00000	4712.76100
4.88640	0.00000	4712.76100
4.89056	0.00000	4712.76100
4.89443	0.00000	4715.56900
4.89883	0.00000	4715.56900
4.90302	0.00000	4715.56900
4.90694	0.00000	4715.56900
4.91077	0.00000	4715.56900
4.91481	0.00000	4715.56900
4.91899	0.00000	4718.19200
4.92293	0.00000	4718.19200
4.92676	0.00000	4718.19200
4.93059	0.00000	4718.19200
4.93477	0.00000	4718.19200
4.93884	0.00000	4718.37600
4.94269	0.00000	4718.37600
4.94663	0.00000	4718.37600
4.95092	0.00000	4718.37600
4.95501	0.00000	4718.37600
4.95886	0.00000	4718.37600
4.96267	0.00000	4709.82100
4.96661	0.00000	4709.82100
4.97075	0.00000	4709.82100
4.97461	0.00000	4709.82100
4.97842	0.00000	4709.82100
4.98227	0.00000	4701.45100
4.98641	0.00000	4701.45100
4.99024	0.00000	4701.45100
4.99406	0.00000	4701.45100
4.99789	0.00000	4701.45100
5.00236	0.00000	4701.45100
5.00622	0.00000	4720.98200
5.01005	0.00000	4720.98200
5.01389	0.00000	4720.98200
5.01790	0.00000	4720.98200
5.02180	0.00000	4720.98200
5.02562	0.00000	4720.98200
5.02943	0.00000	4756.43300
5.03331	0.00000	4756.43300
5.03730	0.00000	4756.43300
5.04113	0.00000	4756.43300
5.04496	0.00000	4756.43300
5.04880	0.00000	4756.43300
5.05285	0.00000	5090.72600
5.05670	0.00000	5090.72600
5.06056	0.00000	5090.72600
5.06442	0.00000	5090.72600
5.06840	0.00000	5090.72600
5.07227	0.00000	5090.72600
5.07609	0.00000	5090.72600
5.07992	0.00000	5441.17700
5.08381	0.00000	5441.17700
5.08780	0.00000	5441.17700
5.09164	0.00000	5441.17700
5.09547	0.00000	5441.17700
5.09931	0.00000	5441.17700
5.10333	0.00000	5441.17700
5.10716	0.00000	5674.45500
5.11100	0.00000	5674.45500
5.11484	0.00000	5674.45500
5.11886	0.00000	5674.45500
5.12271	0.00000	5674.45500
5.12654	0.00000	5674.45500
5.13037	0.00000	5674.45500
5.13431	0.00000	5674.45500
5.13820	0.00000	5841.97600
5.14215	0.00000	5841.97600
5.14601	0.00000	5841.97600
5.14994	0.00000	5841.97600
5.15394	0.00000	5841.97600
5.15778	0.00000	5841.97600
5.16163	0.00000	5841.97600
5.16553	0.00000	5941.50600
5.16964	0.00000	5941.50600
5.17354	0.00000	5941.50600
5.17739	0.00000	5941.50600
5.18141	0.00000	5941.50600
5.18549	0.00000	5941.50600
5.18938	0.00000	5941.50600
5.19321	0.00000	5941.50600
5.19709	0.00000	5978.51500
5.20112	0.00000	5978.51500
5.20505	0.00000	5978.51500
5.20894	0.00000	5978.51500
5.21275	0.00000	5978.51500
5.21675	0.00000	5978.51500
5.22081	0.00000	5978.51500
5.22466	0.00000	5978.51500
5.22849	0.00000	5999.22800
5.23237	0.00000	5999.22800
5.23647	0.00000	5999.22800
5.24033	0.00000	5999.22800
5.24417	0.00000	5999.22800
5.24807	0.00000	5999.22800
5.25214	0.00000	5999.22800
5.25603	0.00000	5999.22800
5.25990	0.00000	6036.11600
5.26385	0.00000	6036.11600
5.26792	0.00000	6036.11600
5.27187	0.00000	6036.11600
5.27573	0.00000	6036.11600
5.27959	0.00000	6036.11600
5.28353	0.00000	6036.11600
5.28762	0.00000	6036.11600
5.29151	0.00000	6036.35200
5.29537	0.00000	6036.35200
5.29951	0.00000	6036.35200
5.30364	0.00000	6036.35200
5.30754	0.00000	6036.35200
5.31139	0.00000	6036.35200
5.31525	0.00000	6036.35200
5.31939	0.00000	6036.35200
5.32330	0.00000	6068.77500
5.32719	0.00000	6068.77500
5.33111	0.00000	6068.77500
5.33523	0.00000	6068.77500
5.33917	0.00000	6068.77500
5.34303	0.00000	6068.77500
5.34693	0.00000	6068.77500
5.35108	0.00000	6068.77500
5.35517	0.00000	6061.22400
5.35904	0.00000	6061.22400
5.36294	0.00000	6061.22400
5.36697	0.00000	6061.22400
5.37097	0.00000	6061.22400
5.37482	0.00000	6061.22400
5.37865	0.00000	6061.22400
5.38259	0.00000	6061.22400
5.38667	0.00000	6072.70400
5.39051	0.00000	6072.70400
5.39434	0.00000	6072.70400
5.39819	0.00000	6072.70400
5.40229	0.00000	6072.70400
5.40615	0.00000	6072.70400
5.41000	0.00000	6072.70400
5.41386	0.00000	6072.70400
5.41794	0.00000	6072.70400
5.42201	0.00000	6055.64000
5.42586	0.00000	6055.64000
5.42973	0.00000	6055.64000
5.43376	0.00000	6055.64000
5.43773	0.00000	6055.64000
5.44157	0.00000	6055.64000
5.44539	0.00000	6055.64000
5.44923	0.00000	6055.64000
5.45325	0.00000	6055.64000
5.45710	0.00000	6055.64000
5.46092	0.00000	6055.64000
5.46477	0.00000	6055.64000
5.46887	0.00000	6055.64000
5.47272	0.00000	6055.64000
5.47655	0.00000	6055.64000
5.48037	0.00000	6055.64000
5.48428	0.00000	6057.54500
5.48818	0.00000	6057.54500
5.49202	0.00000	6057.54500
5.49584	0.00000	6057.54500
5.49984	0.00000	6057.54500
5.50395	0.00000	6057.54500
5.50779	0.00000	6057.54500
5.51163	0.00000	6057.54500
5.51548	0.00000	6063.26200
5.51959	0.00000	6063.26200
5.52343	0.00000	6063.26200
5.52732	0.00000	6063.26200
5.53117	0.00000	6063.26200
5.53524	0.00000	6063.26200
5.53912	0.00000	6063.26200
5.54295	0.00000	6063.26200
5.54677	0.00000	6063.26200
5.55072	0.00000	6063.26200
5.55466	0.00000	6063.26200
5.55847	0.00000	6063.26200
5.56229	0.00000	6063.26200
5.56612	0.00000	6063.26200
5.57008	0.00000	6063.26200
5.57390	0.00000	6063.26200
5.57772	0.00000	6063.26200
5.58154	0.00000	6070.97600
5.58550	0.00000	6070.97600
5.58932	0.00000	6070.97600
5.59313	0.00000	6070.97600
5.59695	0.00000	6070.97600
5.60086	0.00000	6070.97600
5.60470	0.00000	6070.97600
5.60852	0.00000	6070.97600
5.61234	0.00000	6067.07300
5.61618	0.00000	6067.07300
5.62013	0.00000	6067.07300
5.62395	0.00000	6067.07300
5.62779	0.00000	6067.07300
5.63163	0.00000	6067.07300
5.63560	0.00000	6067.07300
5.63946	0.00000	6067.07300
5.64328	0.00000	6061.35600
5.64716	0.00000	6061.35600
5.65150	0.00000	6061.35600
5.65561	0.00000	6061.35600
5.65944	0.00000	6061.35600
5.66329	0.00000	6061.35600
5.66727	0.00000	6061.35600
5.67123	0.00000	6061.35600
5.67506	0.00000	6065.16700
5.67889	0.00000	6065.16700
5.68276	0.00000	6065.16700
5.68677	0.00000	6065.16700
5.69059	0.00000	6065.16700
5.69441	0.00000	6065.16700
5.69825	0.00000	6065.16700
5.70223	0.00000	6065.16700
5.70606	0.00000	6072.78900
5.70986	0.00000	6072.78900
5.71370	0.00000	6072.78900
5.71764	0.00000	6072.78900
5.72149	0.00000	6072.78900
5.72532	0.00000	6072.78900
5.72917	0.00000	6072.78900
5.73306	0.00000	6072.78900
5.73704	0.00000	6072.78900
5.74087	0.00000	6074.69500
5.74469	0.00000	6074.69500
5.74853	0.00000	6074.69500
5.75261	0.00000	6074.69500
5.75644	0.00000	6074.69500
5.76026	0.00000	6074.69500
5.76409	0.00000	6074.69500
5.76808	0.00000	6074.69500
5.77195	0.00000	6065.16700
5.77577	0.00000	6065.16700
5.77959	0.00000	6065.16700
5.78347	0.00000	6065.16700
5.78744	0.00000	6065.16700
5.79128	0.00000	6065.16700
5.79511	0.00000	6065.16700
5.79897	0.00000	6065.16700
5.80301	0.00000	6065.16700
5.80687	0.00000	6065.16700
5.81070	0.00000	6065.16700
5.81453	0.00000	6065.16700
5.81856	0.00000	6065.16700
5.82241	0.00000	6065.16700
5.82623	0.00000	6065.16700
5.83005	0.00000	6065.16700
5.83398	0.00000	6065.16700
5.83795	0.00000	6065.16700
5.84178	0.00000	6065.16700
5.84562	0.00000	6065.16700
5.84951	0.00000	6065.16700
5.85356	0.00000	6065.16700
5.85739	0.00000	6065.16700
5.86121	0.00000	6065.16700
5.86505	0.00000	6065.16700
5.86910	0.00000	6069.07900
5.87294	0.00000	6069.07900
5.87673	0.00000	6069.07900
5.88056	0.00000	6069.07900
5.88454	0.00000	6069.07900
5.88840	0.00000	6069.07900
5.89223	0.00000	6069.07900
5.89605	0.00000	6069.07900
5.89993	0.00000	6078.50600
5.90395	0.00000	6078.50600
5.90777	0.00000	6078.50600
5.91159	0.00000	6078.50600
5.91546	0.00000	6078.50600
5.91952	0.00000	6078.50600
5.92336	0.00000	6078.50600
5.92719	0.00000	6078.50600
5.93102	0.00000	6076.60000
5.93504	0.00000	6076.60000
5.93890	0.00000	6076.60000
5.94271	0.00000	6076.60000
5.94654	0.00000	6076.60000
5.95048	0.00000	6076.60000
5.95447	0.00000	6076.60000
5.95830	0.00000	6076.60000
5.96213	0.00000	6067.07300
5.96601	0.00000	6067.07300
5.97004	0.00000	6067.07300
5.97387	0.00000	6067.07300
5.97770	0.00000	6067.07300
5.98159	0.00000	6067.07300
5.98582	0.00000	6067.07300
5.98977	0.00000	6067.07300
5.99362	0.00000	6070.88400
5.99750	0.00000	6070.88400
6.00159	0.00000	6070.88400
6.00557	0.00000	6070.88400
6.00941	0.00000	6070.88400
6.01338	0.00000	6070.88400
6.01750	0.00000	6070.88400
6.02164	0.00000	6070.88400
6.02557	0.00000	6087.98700
6.02950	0.00000	6087.98700
6.03368	0.00000	6087.98700
6.03778	0.00000	6087.98700
6.04187	0.00000	6087.98700
6.04588	0.00000	6087.98700
6.05000	0.00000	6087.98700
6.05418	0.00000	6087.98700
6.05811	0.00000	6072.70400
6.06208	0.00000	6072.70400
6.06616	0.00000	6072.70400
6.07034	0.00000	6072.70400
6.07429	0.00000	6072.70400
6.07815	0.00000	6072.70400
6.08216	0.00000	6072.70400
6.08641	0.00000	6072.70400
6.09038	0.00000	6067.07300
6.09451	0.00000	6067.07300
6.09846	0.00000	6067.07300
6.10267	0.00000	6067.07300
6.10664	0.00000	6067.07300
6.11059	0.00000	6067.07300
6.11459	0.00000	6067.07300
6.11892	0.00000	6067.07300
6.12290	0.00000	6063.26200
6.12686	0.00000	6063.26200
6.13086	0.00000	6063.26200
6.13508	0.00000	6063.26200
6.13910	0.00000	6063.26200
6.14304	0.00000	6063.26200
6.14700	0.00000	6063.26200
6.15120	0.00000	6063.26200
6.15532	0.00000	6059.45100
6.15930	0.00000	6059.45100
6.16328	0.00000	6059.45100
6.16745	0.00000	6059.45100
6.17158	0.00000	6059.45100
6.17551	0.00000	6059.45100
6.17953	0.00000	6059.45100
6.18373	0.00000	6059.45100
6.18787	0.00000	6065.16700
6.19182	0.00000	6065.16700
6.19576	0.00000	6065.16700
6.20001	0.00000	6065.16700
6.20414	0.00000	6065.16700
6.20808	0.00000	6065.16700
6.21199	0.00000	6065.16700
6.21601	0.00000	6065.16700
6.22020	0.00000	6068.97800
6.22410	0.00000	6068.97800
6.22798	0.00000	6068.97800
6.23190	0.00000	6068.97800
6.23608	0.00000	6068.97800
6.23999	0.00000	6068.97800
6.24386	0.00000	6068.97800
6.24780	0.00000	6068.97800
6.25199	0.00000	6072.78900
6.25595	0.00000	6072.78900
6.25991	0.00000	6072.78900
6.26386	0.00000	6072.78900
6.26805	0.00000	6072.78900
6.27199	0.00000	6072.78900
6.27584	0.00000	6072.78900
6.27976	0.00000	6072.78900
6.28408	0.00000	6070.88400
6.28822	0.00000	6070.88400
6.29216	0.00000	6070.88400
6.29611	0.00000	6070.88400
6.30025	0.00000	6070.88400
6.30441	0.00000	6070.88400
6.30837	0.00000	6070.88400
6.31230	0.00000	6063.13800
6.31706	0.00000	6063.13800
6.32117	0.00000	6063.13800
6.32508	0.00000	6063.13800
6.32896	0.00000	6063.13800
6.33292	0.00000	6063.13800
6.33706	0.00000	6063.13800
6.34094	0.00000	6063.13800
6.34475	0.00000	6068.97800
6.34874	0.00000	6068.97800
6.35288	0.00000	6068.97800
6.35673	0.00000	6068.97800
6.36059	0.00000	6068.97800
6.36446	0.00000	6068.97800
6.36860	0.00000	6068.97800
6.37267	0.00000	6068.97800
6.37661	0.00000	6078.44400
6.38054	0.00000	6078.44400
6.38493	0.00000	6078.44400
6.38896	0.00000	6078.44400
6.39288	0.00000	6078.44400
6.39677	0.00000	6078.44400
6.40099	0.00000	6078.44400
6.40511	0.00000	6078.44400
6.40900	0.00000	6072.70400
6.41289	0.00000	6072.70400
6.41690	0.00000	6072.70400
6.42094	0.00000	6072.70400
6.42482	0.00000	6072.70400
6.42868	0.00000	6072.70400
6.43264	0.00000	6072.70400
6.43674	0.00000	6072.70400
6.44064	0.00000	6068.97800
6.44452	0.00000	6068.97800
6.44843	0.00000	6068.97800
6.45256	0.00000	6068.97800
6.45644	0.00000	6068.97800
6.46030	0.00000	6068.97800
6.46415	0.00000	6068.97800
6.46817	0.00000	6068.97800
6.47206	0.00000	6068.97800
6.47589	0.00000	6067.18100
6.47974	0.00000	6067.18100
6.48379	0.00000	6067.18100
6.48788	0.00000	6067.18100
6.49181	0.00000	6067.18100
6.49570	0.00000	6067.18100
6.49964	0.00000	6067.18100
6.50375	0.00000	6067.18100
6.50765	0.00000	6084.18300
6.51154	0.00000	6084.18300
6.51546	0.00000	6084.18300
6.51959	0.00000	6084.18300
6.52353	0.00000	6084.18300
6.52755	0.00000	6084.18300
6.53152	0.00000	6084.18300
6.53569	0.00000	6084.18300
6.53953	0.00000	6086.09600
6.54343	0.00000	6086.09600
6.54735	0.00000	6086.09600
6.55152	0.00000	6086.09600
6.55550	0.00000	6086.09600
6.55938	0.00000	6086.09600
6.56340	0.00000	6086.09600
6.56755	0.00000	6066.96400
6.57184	0.00000	6066.96400
6.57576	0.00000	6066.96400
6.57967	0.00000	6066.96400
6.58369	0.00000	6066.96400
6.58775	0.00000	6066.96400
6.59165	0.00000	6066.96400
6.59549	0.00000	6066.96400
6.59941	0.00000	6048.01800
6.60352	0.00000	6048.01800
6.60737	0.00000	6048.01800
6.61126	0.00000	6048.01800
6.61520	0.00000	6048.01800
6.61935	0.00000	6048.01800
6.62325	0.00000	6048.01800
6.62718	0.00000	6048.01800
6.63107	0.00000	6048.01800
6.63507	0.00000	6051.99900
6.63901	0.00000	6051.99900
6.64293	0.00000	6051.99900
6.64683	0.00000	6051.99900
6.65285	0.00000	6051.99900
6.65747	0.00000	6051.99900
6.66140	0.00000	6051.99900
6.66532	0.00000	6063.13800
6.66950	0.00000	6063.13800
6.67343	0.00000	6063.13800
6.67735	0.00000	6063.13800
6.68128	0.00000	6063.13800
6.68545	0.00000	6063.13800
6.68935	0.00000	6063.13800
6.69328	0.00000	6063.13800
6.69716	0.00000	6076.60000
6.70128	0.00000	6076.60000
6.70532	0.00000	6076.60000
6.70927	0.00000	6076.60000
6.71320	0.00000	6076.60000
6.71741	0.00000	6076.60000
6.72149	0.00000	6076.60000
6.72539	0.00000	6076.60000
6.72926	0.00000	6078.50600
6.73328	0.00000	6078.50600
6.73741	0.00000	6078.50600
6.74133	0.00000	6078.50600
6.74524	0.00000	6078.50600
6.74916	0.00000	6078.50600
6.75331	0.00000	6078.50600
6.75714	0.00000	6078.50600
6.76099	0.00000	6050.10100
6.76499	0.00000	6050.10100
6.77049	0.00000	6050.10100
6.77446	0.00000	6050.10100
6.77840	0.00000	6050.10100
6.78230	0.00000	6050.10100
6.78638	0.00000	6050.10100
6.79022	0.00000	6050.10100
6.79414	0.00000	6072.78900
6.79804	0.00000	6072.78900
6.80224	0.00000	6072.78900
6.80620	0.00000	6072.78900
6.81009	0.00000	6072.78900
6.81425	0.00000	6072.78900
6.81845	0.00000	6072.78900
6.82242	0.00000	6072.78900
6.82636	0.00000	6078.50600
6.83039	0.00000	6078.50600
6.83459	0.00000	6078.50600
6.83868	0.00000	6078.50600
6.84261	0.00000	6078.50600
6.84695	0.00000	6078.50600
6.85112	0.00000	6078.50600
6.85519	0.00000	6065.05100
6.85907	0.00000	6065.05100
6.86294	0.00000	6065.05100
6.86696	0.00000	6065.05100
6.87113	0.00000	6065.05100
6.87508	0.00000	6065.05100
6.87905	0.00000	6065.05100
6.88334	0.00000	6065.05100
6.88746	0.00000	6057.54500
6.89139	0.00000	6057.54500
6.89526	0.00000	6057.54500
6.89918	0.00000	6057.54500
6.90337	0.00000	6057.54500
6.90725	0.00000	6057.54500
6.91114	0.00000	6057.54500
6.91504	0.00000	6057.54500
6.91924	0.00000	6068.97800
6.92315	0.00000	6068.97800
6.92697	0.00000	6068.97800
6.93095	0.00000	6068.97800
6.93503	0.00000	6068.97800
6.93898	0.00000	6068.97800
6.94287	0.00000	6068.97800
6.94679	0.00000	6068.97800
6.95085	0.00000	6068.97800
6.95498	0.00000	6068.97800
6.95889	0.00000	6068.97800
6.96280	0.00000	6068.97800
6.96688	0.00000	6068.97800
6.97095	0.00000	6068.97800
6.97497	0.00000	6068.97800
6.97886	0.00000	6068.97800
6.98277	0.00000	6063.26200
6.98688	0.00000	6063.26200
6.99072	0.00000	6063.26200
6.99455	0.00000	6063.26200
6.99844	0.00000	6063.26200
7.00256	0.00000	6063.26200
7.00647	0.00000	6063.26200
7.01038	0.00000	6063.26200
7.01428	0.00000	6082.27000
7.01854	0.00000	6082.27000
7.02248	0.00000	6082.27000
7.02639	0.00000	6082.27000
7.03024	0.00000	6082.27000
7.03416	0.00000	6082.27000
7.03821	0.00000	6082.27000
7.04211	0.00000	6082.27000
7.04614	0.00000	6061.22400
7.05027	0.00000	6061.22400
7.05443	0.00000	6061.22400
7.05833	0.00000	6061.22400
7.06222	0.00000	6061.22400
7.06628	0.00000	6061.22400
7.07041	0.00000	6061.22400
7.07433	0.00000	6061.22400
7.07824	0.00000	6063.13800
7.08217	0.00000	6063.13800
7.08634	0.00000	6063.13800
7.09024	0.00000	6063.13800
7.09407	0.00000	6063.13800
7.09795	0.00000	6063.13800
7.10212	0.00000	6063.13800
7.10604	0.00000	6063.13800
7.10990	0.00000	6066.96400
7.11406	0.00000	6066.96400
7.11830	0.00000	6066.96400
7.12278	0.00000	6066.96400
7.12721	0.00000	6066.96400
7.13113	0.00000	6066.96400
7.13569	0.00000	6066.96400
7.13992	0.00000	6066.96400
7.14389	0.00000	6051.65800
7.14815	0.00000	6051.65800
7.15266	0.00000	6051.65800
7.15691	0.00000	6051.65800
7.16082	0.00000	6051.65800
7.16478	0.00000	6051.65800
7.16899	0.00000	6051.65800
7.17337	0.00000	6076.46000
7.17877	0.00000	6076.46000
7.18281	0.00000	6076.46000
7.18696	0.00000	6076.46000
7.19094	0.00000	6076.46000
7.19489	0.00000	6076.46000
7.19888	0.00000	6076.46000
7.20303	0.00000	6076.46000
7.20694	0.00000	6074.61700
7.21082	0.00000	6074.61700
7.21474	0.00000	6074.61700
7.21894	0.00000	6074.61700
7.22284	0.00000	6074.61700
7.22671	0.00000	6074.61700
7.23069	0.00000	6074.61700
7.23485	0.00000	6074.61700
7.23885	0.00000	6065.16700
7.24276	0.00000	6065.16700
7.24669	0.00000	6065.16700
7.25090	0.00000	6065.16700
7.25495	0.00000	6065.16700
7.25888	0.00000	6065.16700
7.26292	0.00000	6065.16700
7.26712	0.00000	6065.16700
7.27125	0.00000	6065.16700
7.27531	0.00000	6065.16700
7.27955	0.00000	6065.16700
7.28382	0.00000	6065.16700
7.28830	0.00000	6065.16700
7.29262	0.00000	6065.16700
7.29770	0.00000	6065.16700
7.30256	0.00000	6072.61700
7.30686	0.00000	6072.61700
7.31130	0.00000	6072.61700
7.31533	0.00000	6072.61700
7.31963	0.00000	6072.61700
7.32494	0.00000	6072.61700
7.32942	0.00000	6072.61700
7.33376	0.00000	6078.38100
7.33813	0.00000	6078.38100
7.34265	0.00000	6078.38100
7.34697	0.00000	6078.38100
7.35149	0.00000	6078.38100
7.35593	0.00000	6078.38100
7.36070	0.00000	6078.38100
7.36498	0.00000	6078.38100
7.36935	0.00000	6078.38100
7.37378	0.00000	6078.38100
7.37787	0.00000	6078.38100
7.38235	0.00000	6078.38100
7.38679	0.00000	6078.38100
7.39102	0.00000	6078.38100
7.39510	0.00000	6078.38100
7.39929	0.00000	6055.64000
7.40362	0.00000	6055.64000
7.40787	0.00000	6055.64000
7.41192	0.00000	6055.64000
7.41617	0.00000	6055.64000
7.42032	0.00000	6055.64000
7.42417	0.00000	6055.64000
7.42799	0.00000	6044.00500
7.43184	0.00000	6044.00500
7.43596	0.00000	6044.00500
7.43983	0.00000	6044.00500
7.44365	0.00000	6044.00500
7.44751	0.00000	6044.00500
7.45165	0.00000	6044.00500
7.45550	0.00000	6044.00500
7.45933	0.00000	6044.00500
7.46316	0.00000	6059.45100
7.46707	0.00000	6059.45100
7.47109	0.00000	6059.45100
7.47515	0.00000	6059.45100
7.47923	0.00000	6059.45100
7.48336	0.00000	6059.45100
7.48740	0.00000	6059.45100
7.49123	0.00000	6059.45100
7.49505	0.00000	6068.87700
7.49891	0.00000	6068.87700
7.50321	0.00000	6068.87700
7.50748	0.00000	6068.87700
7.51141	0.00000	6068.87700
7.51527	0.00000	6068.87700
7.51931	0.00000	6068.87700
7.52315	0.00000	6068.87700
7.52705	0.00000	6086.06500
7.53091	0.00000	6086.06500
7.53486	0.00000	6086.06500
7.53874	0.00000	6086.06500
7.54258	0.00000	6086.06500
7.54640	0.00000	6086.06500
7.55056	0.00000	6086.06500
7.55483	0.00000	6086.06500
7.55884	0.00000	6066.96400
7.56319	0.00000	6066.96400
7.56764	0.00000	6066.96400
7.57187	0.00000	6066.96400
7.57587	0.00000	6066.96400
7.58058	0.00000	6066.96400
7.58527	0.00000	6066.96400
7.58947	0.00000	6064.93300
7.59350	0.00000	6064.93300
7.59781	0.00000	6064.93300
7.60221	0.00000	6064.93300
7.60635	0.00000	6064.93300
7.61053	0.00000	6064.93300
7.61618	0.00000	6064.93300
7.62069	0.00000	6064.93300
7.62564	0.00000	6064.93300
7.62977	0.00000	6064.93300
7.63416	0.00000	6064.93300
7.63831	0.00000	6064.93300
7.64220	0.00000	6064.93300
7.64634	0.00000	6064.93300
7.65070	0.00000	6061.09100
7.65748	0.00000	6061.09100
7.66312	0.00000	6061.09100
7.66762	0.00000	6061.09100
7.67228	0.00000	6061.09100
7.67666	0.00000	6061.09100
7.68141	0.00000	6053.24000
7.68598	0.00000	6053.24000
7.69042	0.00000	6053.24000
7.69474	0.00000	6053.24000
7.69947	0.00000	6053.24000
7.70380	0.00000	6053.24000
7.70818	0.00000	6053.24000
7.71245	0.00000	6053.24000
7.71683	0.00000	6051.65800
7.72174	0.00000	6051.65800
7.72626	0.00000	6051.65800
7.73037	0.00000	6051.65800
7.73495	0.00000	6051.65800
7.73931	0.00000	6051.65800
7.74379	0.00000	6051.65800
7.74827	0.00000	6068.77500
7.75338	0.00000	6068.77500
7.75914	0.00000	6068.77500
7.76378	0.00000	6068.77500
7.76827	0.00000	6068.77500
7.77279	0.00000	6068.77500
7.77703	0.00000	6064.81500
7.78107	0.00000	6064.81500
7.78522	0.00000	6064.81500
7.78908	0.00000	6064.81500
7.79290	0.00000	6064.81500
7.79676	0.00000	6064.81500
7.80078	0.00000	6064.81500
7.80469	0.00000	6064.81500
7.80851	0.00000	6064.81500
7.81232	0.00000	6061.35600
7.81631	0.00000	6061.35600
7.82075	0.00000	6061.35600
7.82468	0.00000	6061.35600
7.82884	0.00000	6061.35600
7.83321	0.00000	6061.35600
7.83758	0.00000	6061.35600
7.84173	0.00000	6074.53900
7.84567	0.00000	6074.53900
7.84977	0.00000	6074.53900
7.85391	0.00000	6074.53900
7.85775	0.00000	6074.53900
7.86158	0.00000	6074.53900
7.86549	0.00000	6074.53900
7.86963	0.00000	6074.53900
7.87359	0.00000	6059.45100
7.87754	0.00000	6059.45100
7.88145	0.00000	6059.45100
7.88563	0.00000	6059.45100
7.88949	0.00000	6059.45100
7.89332	0.00000	6059.45100
7.89717	0.00000	6059.45100
7.90121	0.00000	6059.45100
7.90518	0.00000	6078.44400
7.90912	0.00000	6078.44400
7.91302	0.00000	6078.44400
7.91714	0.00000	6078.44400
7.92122	0.00000	6078.44400
7.92513	0.00000	6078.44400
7.92906	0.00000	6078.44400
7.93314	0.00000	6078.44400
7.93729	0.00000	6074.61700
7.94123	0.00000	6074.61700
7.94527	0.00000	6074.61700
7.94958	0.00000	6074.61700
7.95401	0.00000	6074.61700
7.95801	0.00000	6074.61700
7.96204	0.00000	6074.61700
7.96668	0.00000	6074.61700
7.97088	0.00000	6078.44400
7.97486	0.00000	6078.44400
7.97884	0.00000	6078.44400
7.98338	0.00000	6078.44400
7.98759	0.00000	6078.44400
7.99157	0.00000	6078.44400
7.99555	0.00000	6078.44400
7.99994	0.00000	6064.93300
8.00417	0.00000	6064.93300
8.00832	0.00000	6064.93300
8.01253	0.00000	6064.93300
8.01679	0.00000	6064.93300
8.02097	0.00000	6064.93300
8.02493	0.00000	6064.93300
8.02887	0.00000	6064.93300
8.03310	0.00000	6049.92400
8.03742	0.00000	6049.92400
8.04133	0.00000	6049.92400
8.04522	0.00000	6049.92400
8.04970	0.00000	6049.92400
8.05414	0.00000	6049.92400
8.05967	0.00000	6049.92400
8.06377	0.00000	6061.09100
8.06838	0.00000	6061.09100
8.07277	0.00000	6061.09100
8.07696	0.00000	6061.09100
8.08105	0.00000	6061.09100
8.08577	0.00000	6061.09100
8.08994	0.00000	6061.09100
8.09393	0.00000	6061.09100
8.09917	0.00000	6046.11300
8.10344	0.00000	6046.11300
8.10754	0.00000	6046.11300
8.11153	0.00000	6046.11300
8.11567	0.00000	6046.11300
8.11987	0.00000	6046.11300
8.12382	0.00000	6046.11300
8.12775	0.00000	6070.69700
8.13209	0.00000	6070.69700
8.13632	0.00000	6070.69700
8.14030	0.00000	6070.69700
8.14427	0.00000	6070.69700
8.14909	0.00000	6070.69700
8.15454	0.00000	6070.69700
8.15900	0.00000	6063.01200
8.16344	0.00000	6063.01200
8.16886	0.00000	6063.01200
8.17353	0.00000	6063.01200
8.17758	0.00000	6063.01200
8.18160	0.00000	6063.01200
8.18582	0.00000	6063.01200
8.19035	0.00000	6059.17000
8.19438	0.00000	6059.17000
8.19844	0.00000	6059.17000
8.20278	0.00000	6059.17000
8.20703	0.00000	6059.17000
8.21108	0.00000	6059.17000
8.21503	0.00000	6059.17000
8.21920	0.00000	6059.17000
8.22312	0.00000	6038.49000
8.22752	0.00000	6038.49000
8.23205	0.00000	6038.49000
8.23708	0.00000	6038.49000
8.24233	0.00000	6038.49000
8.24653	0.00000	6038.49000
8.25082	0.00000	6038.49000
8.25494	0.00000	6061.09100
8.25883	0.00000	6061.09100
8.26303	0.00000	6061.09100
8.26714	0.00000	6061.09100
8.27135	0.00000	6061.09100
8.27678	0.00000	6061.09100
8.28087	0.00000	6061.09100
8.28511	0.00000	6057.24900
8.28930	0.00000	6057.24900
8.29323	0.00000	6057.24900
8.29713	0.00000	6057.24900
8.30126	0.00000	6057.24900
8.30637	0.00000	6057.24900
8.31053	0.00000	6057.24900
8.31467	0.00000	6057.24900
8.31919	0.00000	6055.48500
8.32403	0.00000	6055.48500
8.32810	0.00000	6055.48500
8.33222	0.00000	6055.48500
8.33680	0.00000	6055.48500
8.34134	0.00000	6055.48500
8.34592	0.00000	6055.48500
8.35073	0.00000	6064.93300
8.35512	0.00000	6064.93300
8.36033	0.00000	6064.93300
8.36452	0.00000	6064.93300
8.36880	0.00000	6064.93300
8.37323	0.00000	6064.93300
8.37732	0.00000	6064.93300
8.38264	0.00000	6063.01200
8.38690	0.00000	6063.01200
8.39107	0.00000	6063.01200
8.39516	0.00000	6063.01200
8.39962	0.00000	6063.01200
8.40420	0.00000	6063.01200
8.40839	0.00000	6063.01200
8.41260	0.00000	6064.93300
8.41735	0.00000	6064.93300
8.42196	0.00000	6064.93300
8.42615	0.00000	6064.93300
8.43171	0.00000	6064.93300
8.43654	0.00000	6064.93300
8.44082	0.00000	6064.93300
8.44515	0.00000	6068.77500
8.45164	0.00000	6068.77500
8.45590	0.00000	6068.77500
8.46007	0.00000	6068.77500
8.46483	0.00000	6068.77500
8.46936	0.00000	6068.77500
8.47379	0.00000	6068.77500
8.47841	0.00000	6066.85400
8.48342	0.00000	6066.85400
8.48794	0.00000	6066.85400
8.49214	0.00000	6066.85400
8.49672	0.00000	6066.85400
8.50294	0.00000	6066.85400
8.50763	0.00000	6059.02800
8.51176	0.00000	6059.02800
8.51596	0.00000	6059.02800
8.52073	0.00000	6059.02800
8.52584	0.00000	6059.02800
8.53131	0.00000	6059.02800
8.53574	0.00000	6059.02800
8.53994	0.00000	6059.17000
8.54412	0.00000	6059.17000
8.54817	0.00000	6059.17000
8.55410	0.00000	6059.17000
8.55994	0.00000	6059.17000
8.56403	0.00000	6059.17000
8.56936	0.00000	6059.17000
8.57366	0.00000	6080.24700
8.57759	0.00000	6080.24700
8.58152	0.00000	6080.24700
8.58583	0.00000	6080.24700
8.59001	0.00000	6080.24700
8.59395	0.00000	6080.24700
8.59786	0.00000	6080.24700
8.60204	0.00000	6061.09100
8.60596	0.00000	6061.09100
8.60981	0.00000	6061.09100
8.61368	0.00000	6061.09100
8.61780	0.00000	6061.09100
8.62181	0.00000	6061.09100
8.62599	0.00000	6061.09100
8.63008	0.00000	6061.09100
8.63432	0.00000	6072.61700
8.63867	0.00000	6072.61700
8.64391	0.00000	6072.61700
8.64875	0.00000	6072.61700
8.65322	0.00000	6072.61700
8.65741	0.00000	6072.61700
8.66132	0.00000	6072.61700
8.66521	0.00000	6055.32700
8.67129	0.00000	6055.32700
8.67539	0.00000	6055.32700
8.67950	0.00000	6055.32700
8.68416	0.00000	6055.32700
8.69174	0.00000	6055.32700
8.69604	0.00000	6055.32700
8.70044	0.00000	6080.19100
8.70464	0.00000	6080.19100
8.70895	0.00000	6080.19100
8.71298	0.00000	6080.19100
8.71745	0.00000	6080.19100
8.72282	0.00000	6080.19100
8.72707	0.00000	6080.19100
8.73117	0.00000	6059.17000
8.73566	0.00000	6059.17000
8.74015	0.00000	6059.17000
8.74559	0.00000	6059.17000
8.74988	0.00000	6059.17000
8.75415	0.00000	6059.17000
8.75835	0.00000	6059.17000
8.76238	0.00000	6061.09100
8.76691	0.00000	6061.09100
8.77135	0.00000	6061.09100
8.77682	0.00000	6061.09100
8.78090	0.00000	6061.09100
8.78562	0.00000	6061.09100
8.78980	0.00000	6061.09100
8.79375	0.00000	6072.61700
8.79844	0.00000	6072.61700
8.80261	0.00000	6072.61700
8.80649	0.00000	6072.61700
8.81036	0.00000	6072.61700
8.81424	0.00000	6072.61700
8.81877	0.00000	6072.61700
8.82294	0.00000	6072.61700
8.82718	0.00000	6048.01800
8.83278	0.00000	6048.01800
8.83805	0.00000	6048.01800
8.84227	0.00000	6048.01800
8.84629	0.00000	6048.01800
8.85175	0.00000	6048.01800
8.85688	0.00000	6060.95700
8.86088	0.00000	6060.95700
8.86784	0.00000	6060.95700
8.87231	0.00000	6060.95700
8.87653	0.00000	6060.95700
8.88056	0.00000	6060.95700
8.88487	0.00000	6060.95700
8.88903	0.00000	6047.83100
8.89298	0.00000	6047.83100
8.89711	0.00000	6047.83100
8.90131	0.00000	6047.83100
8.90543	0.00000	6047.83100
8.90934	0.00000	6047.83100
8.91319	0.00000	6047.83100
8.91717	0.00000	6047.83100
8.92235	0.00000	6057.54500
8.92638	0.00000	6057.54500
8.93037	0.00000	6057.54500
8.93454	0.00000	6057.54500
8.93856	0.00000	6057.54500
8.94243	0.00000	6057.54500
8.94632	0.00000	6057.54500
8.95042	0.00000	6068.77500
8.95504	0.00000	6068.77500
8.95928	0.00000	6068.77500
8.96337	0.00000	6068.77500
8.97083	0.00000	6068.77500
8.97506	0.00000	6068.77500
8.97905	0.00000	6068.77500
8.98350	0.00000	6068.77500
8.98793	0.00000	6068.77500
8.99216	0.00000	6068.77500
8.99628	0.00000	6068.77500
9.00323	0.00000	6068.77500
9.00847	0.00000	6068.77500
9.01268	0.00000	6068.77500
9.01696	0.00000	6066.85400
9.02112	0.00000	6066.85400
9.02502	0.00000	6066.85400
9.02919	0.00000	6066.85400
9.03377	0.00000	6066.85400
9.03795	0.00000	6066.85400
9.04185	0.00000	6066.85400
9.04581	0.00000	6061.09100
9.05064	0.00000	6061.09100
9.05538	0.00000	6061.09100
9.05947	0.00000	6061.09100
9.06355	0.00000	6061.09100
9.06782	0.00000	6061.09100
9.07192	0.00000	6061.09100
9.07576	0.00000	6061.09100
9.07964	0.00000	6068.87700
9.08385	0.00000	6068.87700
9.08786	0.00000	6068.87700
9.09169	0.00000	6068.87700
9.09552	0.00000	6068.87700
9.09941	0.00000	6068.87700
9.10349	0.00000	6068.87700
9.10735	0.00000	6068.87700
9.11118	0.00000	6072.70400
9.11502	0.00000	6072.70400
9.11908	0.00000	6072.70400
9.12293	0.00000	6072.70400
9.12674	0.00000	6072.70400
9.13084	0.00000	6072.70400
9.13533	0.00000	6072.70400
9.13973	0.00000	6072.70400
9.14379	0.00000	6074.61700
9.14834	0.00000	6074.61700
9.15262	0.00000	6074.61700
9.15716	0.00000	6074.61700
9.16114	0.00000	6074.61700
9.16508	0.00000	6074.61700
9.16933	0.00000	6074.61700
9.17340	0.00000	6063.01200
9.17760	0.00000	6063.01200
9.18168	0.00000	6063.01200
9.18603	0.00000	6063.01200
9.19021	0.00000	6063.01200
9.19416	0.00000	6063.01200
9.19807	0.00000	6063.01200
9.20258	0.00000	6063.01200
9.20681	0.00000	6072.70400
9.21106	0.00000	6072.70400
9.21543	0.00000	6072.70400
9.21971	0.00000	6072.70400
9.22714	0.00000	6072.70400
9.23122	0.00000	6072.70400
9.23548	0.00000	6072.70400
9.23985	0.00000	6070.60100
9.24390	0.00000	6070.60100
9.24807	0.00000	6070.60100
9.25237	0.00000	6070.60100
9.25709	0.00000	6070.60100
9.26148	0.00000	6070.60100
9.26647	0.00000	6070.60100
9.27076	0.00000	6055.32700
9.27492	0.00000	6055.32700
9.27882	0.00000	6055.32700
9.28342	0.00000	6055.32700
9.28831	0.00000	6055.32700
9.29252	0.00000	6055.32700
9.29657	0.00000	6055.32700
9.30073	0.00000	6051.48500
9.30475	0.00000	6051.48500
9.30859	0.00000	6051.48500
9.31278	0.00000	6051.48500
9.31748	0.00000	6051.48500
9.32254	0.00000	6051.48500
9.32691	0.00000	6051.48500
9.33098	0.00000	6061.09100
9.33515	0.00000	6061.09100
9.33914	0.00000	6061.09100
9.34368	0.00000	6061.09100
9.34786	0.00000	6061.09100
9.35236	0.00000	6061.09100
9.35685	0.00000	6061.09100
9.36124	0.00000	6061.09100
9.36533	0.00000	6070.69700
9.36952	0.00000	6070.69700
9.37345	0.00000	6070.69700
9.37781	0.00000	6070.69700
9.38201	0.00000	6070.69700
9.38634	0.00000	6070.69700
9.39059	0.00000	6070.69700
9.39458	0.00000	6064.93300
9.39849	0.00000	6064.93300
9.40266	0.00000	6064.93300
9.40668	0.00000	6064.93300
9.41108	0.00000	6064.93300
9.41562	0.00000	6064.93300
9.42041	0.00000	6064.93300
9.42487	0.00000	6064.93300
9.42926	0.00000	6044.00500
9.43393	0.00000	6044.00500
9.43860	0.00000	6044.00500
9.44332	0.00000	6044.00500
9.44795	0.00000	6044.00500
9.45223	0.00000	6044.00500
9.45641	0.00000	6044.00500
9.46042	0.00000	6055.32700
9.46477	0.00000	6055.32700
9.46901	0.00000	6055.32700
9.47308	0.00000	6055.32700
9.47743	0.00000	6055.32700
9.48269	0.00000	6055.32700
9.48715	0.00000	6055.32700
9.49158	0.00000	6051.48500
9.49573	0.00000	6051.48500
9.50007	0.00000	6051.48500
9.50443	0.00000	6051.48500
9.50849	0.00000	6051.48500
9.51243	0.00000	6051.48500
9.51668	0.00000	6051.48500
9.52086	0.00000	6051.48500
9.52474	0.00000	6059.31100
9.52861	0.00000	6059.31100
9.53268	0.00000	6059.31100
9.53695	0.00000	6059.31100
9.54180	0.00000	6059.31100
9.54748	0.00000	6059.31100
9.55170	0.00000	6059.31100
9.55715	0.00000	6076.38900
9.56133	0.00000	6076.38900
9.56545	0.00000	6076.38900
9.56968	0.00000	6076.38900
9.57386	0.00000	6076.38900
9.57780	0.00000	6076.38900
9.58172	0.00000	6076.38900
9.58590	0.00000	6053.40600
9.58981	0.00000	6053.40600
9.59368	0.00000	6053.40600
9.59755	0.00000	6053.40600
9.60172	0.00000	6053.40600
9.60564	0.00000	6053.40600
9.60952	0.00000	6053.40600
9.61403	0.00000	6053.40600
9.61817	0.00000	6063.13800
9.62225	0.00000	6063.13800
9.62714	0.00000	6063.13800
9.63142	0.00000	6063.13800
9.63569	0.00000	6063.13800
9.64008	0.00000	6063.13800
9.64412	0.00000	6063.13800
9.64939	0.00000	6078.31800
9.65374	0.00000	6078.31800
9.65795	0.00000	6078.31800
9.66212	0.00000	6078.31800
9.66644	0.00000	6078.31800
9.67070	0.00000	6078.31800
9.67491	0.00000	6078.31800
9.68016	0.00000	6076.38900
9.68509	0.00000	6076.38900
9.68955	0.00000	6076.38900
9.69417	0.00000	6076.38900
9.69899	0.00000	6076.38900
9.70387	0.00000	6076.38900
9.71080	0.00000	6076.38900
9.71497	0.00000	6076.38900
9.71925	0.00000	6076.38900
9.72393	0.00000	6076.38900
9.72805	0.00000	6076.38900
9.73234	0.00000	6076.38900
9.73775	0.00000	6076.38900
9.74197	0.00000	6076.38900
9.74662	0.00000	6063.01200
9.75233	0.00000	6063.01200
9.75999	0.00000	6063.01200
9.76406	0.00000	6063.01200
9.76836	0.00000	6063.01200
9.77307	0.00000	6063.01200
9.77848	0.00000	6053.24000
9.78268	0.00000	6053.24000
9.78744	0.00000	6053.24000
9.79191	0.00000	6053.24000
9.79679	0.00000	6053.24000
9.80129	0.00000	6053.24000
9.80767	0.00000	6049.38300
9.81177	0.00000	6049.38300
9.81693	0.00000	6049.38300
9.82177	0.00000	6049.38300
9.82608	0.00000	6049.38300
9.83062	0.00000	6049.38300
9.83504	0.00000	6049.38300
9.83928	0.00000	6055.32700
9.84342	0.00000	6055.32700
9.84751	0.00000	6055.32700
9.85170	0.00000	6055.32700
9.85574	0.00000	6055.32700
9.85967	0.00000	6055.32700
9.86446	0.00000	6055.32700
9.86891	0.00000	6055.32700
9.87401	0.00000	6047.83100
9.87803	0.00000	6047.83100
9.88211	0.00000	6047.83100
9.88680	0.00000	6047.83100
9.89133	0.00000	6047.83100
9.89541	0.00000	6047.83100
9.89949	0.00000	6047.83100
9.90387	0.00000	6063.01200
9.90817	0.00000	6063.01200
9.91277	0.00000	6063.01200
9.91760	0.00000	6063.01200
9.92185	0.00000	6063.01200
9.92579	0.00000	6063.01200
9.93023	0.00000	6063.01200
9.93518	0.00000	6064.93300
9.93974	0.00000	6064.93300
9.94453	0.00000	6064.93300
9.94863	0.00000	6064.93300
9.95282	0.00000	6064.93300
9.95687	0.00000	6064.93300
9.96092	0.00000	6064.93300
9.96492	0.00000	6066.85400
9.96908	0.00000	6066.85400
9.97298	0.00000	6066.85400
9.97682	0.00000	6066.85400
9.98086	0.00000	6066.85400
9.98522	0.00000	6066.85400
9.98944	0.00000	6066.85400
9.99340	0.00000	6066.85400
9.99772	0.00000	6078.44400
