Time (s)   Thrust (N)   RPM
0.00030	0.00000	5420.06900
0.00422	0.00000	5420.06900
0.00815	0.00000	5420.06900
0.01222	0.00000	5420.06900
0.01612	0.00000	5420.06900
0.01999	0.00000	5420.06900
0.02393	0.00000	5409.56400
0.02782	0.00000	5409.56400
0.03174	0.00000	5409.56400
0.03561	0.00000	5409.56400
0.03950	0.00000	5409.56400
0.04334	0.00000	5409.56400
0.04724	0.00000	5255.82800
0.05110	0.00000	5255.82800
0.05497	0.00000	5255.82800
0.05882	0.00000	5255.82800
0.06268	0.00000	5255.82800
0.06656	0.00000	5255.82800
0.07044	0.00000	5151.26300
0.07427	0.00000	5151.26300
0.07812	0.00000	5151.26300
0.08256	0.00000	5151.26300
0.08646	0.00000	5151.26300
0.09032	0.00000	5151.26300
0.09415	0.00000	5151.26300
0.09799	0.00000	5089.65200
0.10183	0.00000	5089.65200
0.10569	0.00000	5089.65200
0.10952	0.00000	5089.65200
0.11337	0.00000	5089.65200
0.11719	0.00000	5089.65200
0.12103	0.00000	5016.40200
0.12486	0.00000	5016.40200
0.12870	0.00000	5016.40200
0.13253	0.00000	5016.40200
0.13637	0.00000	5016.40200
0.14019	0.00000	5016.40200
0.14402	0.00000	4959.84600
0.14785	0.00000	4959.84600
0.15168	0.00000	4959.84600
0.15551	0.00000	4959.84600
0.15934	0.00000	4959.84600
0.16317	0.00000	4959.84600
0.16701	0.00000	4920.55100
0.17085	0.00000	4920.55100
0.17468	0.00000	4920.55100
0.17852	0.00000	4920.55100
0.18236	0.00000	4920.55100
0.18619	0.00000	4920.55100
0.19002	0.00000	4876.59800
0.19384	0.00000	4876.59800
0.19767	0.00000	4876.59800
0.20150	0.00000	4876.59800
0.20532	0.00000	4876.59800
0.20915	0.00000	4876.59800
0.21299	0.00000	4837.50000
0.21682	0.00000	4837.50000
0.22066	0.00000	4837.50000
0.22448	0.00000	4837.50000
0.22830	0.00000	4837.50000
0.23213	0.00000	4837.50000
0.23597	0.00000	4814.11600
0.23981	0.00000	4814.11600
0.24365	0.00000	4814.11600
0.24747	0.00000	4814.11600
0.25131	0.00000	4814.11600
0.25515	0.00000	4814.11600
0.25897	0.00000	4801.30100
0.26281	0.00000	4801.30100
0.26665	0.00000	4801.30100
0.27049	0.00000	4801.30100
0.27433	0.00000	4801.30100
0.27817	0.00000	4799.89000
0.28201	0.00000	4799.89000
0.28583	0.00000	4799.89000
0.28966	0.00000	4799.89000
0.29350	0.00000	4799.89000
0.29733	0.00000	4799.89000
0.30117	0.00000	4794.40700
0.30501	0.00000	4794.40700
0.30885	0.00000	4794.40700
0.31268	0.00000	4794.40700
0.31651	0.00000	4794.40700
0.32034	0.00000	4794.40700
0.32418	0.00000	4794.40700
0.32802	0.00000	4794.40700
0.33185	0.00000	4794.40700
0.33568	0.00000	4794.40700
0.33952	0.00000	4794.40700
0.34335	0.00000	4794.40700
0.34719	0.00000	4758.77200
0.35103	0.00000	4758.77200
0.35486	0.00000	4758.77200
0.35869	0.00000	4758.77200
0.36253	0.00000	4758.77200
0.36636	0.00000	4758.77200
0.37020	0.00000	4747.80700
0.37405	0.00000	4747.80700
0.37789	0.00000	4747.80700
0.38172	0.00000	4747.80700
0.38555	0.00000	4747.80700
0.38938	0.00000	4737.13200
0.39322	0.00000	4737.13200
0.39705	0.00000	4737.13200
0.40088	0.00000	4737.13200
0.40472	0.00000	4737.13200
0.40856	0.00000	4737.13200
0.41239	0.00000	4723.34500
0.41622	0.00000	4723.34500
0.42006	0.00000	4723.34500
0.42391	0.00000	4723.34500
0.42776	0.00000	4723.34500
0.43160	0.00000	4723.34500
0.43543	0.00000	4731.61700
0.43928	0.00000	4731.61700
0.44311	0.00000	4731.61700
0.44695	0.00000	4731.61700
0.45080	0.00000	4731.61700
0.45464	0.00000	4731.61700
0.45847	0.00000	4731.61700
0.46230	0.00000	4731.61700
0.46615	0.00000	4731.61700
0.46999	0.00000	4731.61700
0.47382	0.00000	4731.61700
0.47765	0.00000	4731.61700
0.48148	0.00000	4745.74700
0.48531	0.00000	4745.74700
0.48914	0.00000	4745.74700
0.49298	0.00000	4745.74700
0.49682	0.00000	4745.74700
0.50065	0.00000	4746.09400
0.50452	0.00000	4746.09400
0.50836	0.00000	4746.09400
0.51219	0.00000	4746.09400
0.51605	0.00000	4746.09400
0.51989	0.00000	4746.09400
0.52372	0.00000	4712.31600
0.52755	0.00000	4712.31600
0.53139	0.00000	4712.31600
0.53523	0.00000	4712.31600
0.53905	0.00000	4712.31600
0.54289	0.00000	4712.31600
0.54672	0.00000	4709.55900
0.55055	0.00000	4709.55900
0.55439	0.00000	4709.55900
0.55822	0.00000	4709.55900
0.56204	0.00000	4709.55900
0.56588	0.00000	4709.55900
0.56970	0.00000	4701.28600
0.57354	0.00000	4701.28600
0.57737	0.00000	4701.28600
0.58121	0.00000	4701.28600
0.58504	0.00000	4701.28600
0.58887	0.00000	4734.93300
0.59271	0.00000	4734.93300
0.59654	0.00000	4734.93300
0.60037	0.00000	4734.93300
0.60421	0.00000	4734.93300
0.60804	0.00000	4734.93300
0.61187	0.00000	4731.87800
0.61570	0.00000	4731.87800
0.61954	0.00000	4731.87800
0.62337	0.00000	4731.87800
0.62720	0.00000	4731.87800
0.63104	0.00000	4731.87800
0.63487	0.00000	4706.80200
0.63870	0.00000	4706.80200
0.64254	0.00000	4706.80200
0.64637	0.00000	4706.80200
0.65020	0.00000	4706.80200
0.65403	0.00000	4706.80200
0.65786	0.00000	4695.77200
0.66169	0.00000	4695.77200
0.66553	0.00000	4695.77200
0.66937	0.00000	4695.77200
0.67320	0.00000	4695.77200
0.67703	0.00000	4720.98200
0.68088	0.00000	4720.98200
0.68472	0.00000	4720.98200
0.68855	0.00000	4720.98200
0.69238	0.00000	4720.98200
0.69621	0.00000	4720.98200
0.70004	0.00000	4693.01400
0.70387	0.00000	4693.01400
0.70771	0.00000	4693.01400
0.71154	0.00000	4693.01400
0.71538	0.00000	4693.01400
0.71921	0.00000	4693.01400
0.72304	0.00000	4737.42600
0.72688	0.00000	4737.42600
0.73072	0.00000	4737.42600
0.73456	0.00000	4737.42600
0.73839	0.00000	4737.42600
0.74222	0.00000	4737.42600
0.74606	0.00000	4723.55700
0.74988	0.00000	4723.55700
0.75371	0.00000	4723.55700
0.75755	0.00000	4723.55700
0.76137	0.00000	4723.55700
0.76520	0.00000	4690.27400
0.76905	0.00000	4690.27400
0.77287	0.00000	4690.27400
0.77671	0.00000	4690.27400
0.78054	0.00000	4690.27400
0.78436	0.00000	4690.27400
0.78820	0.00000	4715.23700
0.79202	0.00000	4715.23700
0.79585	0.00000	4715.23700
0.79968	0.00000	4715.23700
0.80351	0.00000	4715.23700
0.80733	0.00000	4715.23700
0.81116	0.00000	4690.25700
0.81499	0.00000	4690.25700
0.81882	0.00000	4690.25700
0.82265	0.00000	4690.25700
0.82648	0.00000	4690.25700
0.83031	0.00000	4690.25700
0.83413	0.00000	4715.23700
0.83797	0.00000	4715.23700
0.84181	0.00000	4715.23700
0.84564	0.00000	4715.23700
0.84947	0.00000	4715.23700
0.85329	0.00000	4709.82100
0.85713	0.00000	4709.82100
0.86096	0.00000	4709.82100
0.86481	0.00000	4709.82100
0.86864	0.00000	4709.82100
0.87247	0.00000	4709.82100
0.87630	0.00000	4720.78400
0.88014	0.00000	4720.78400
0.88396	0.00000	4720.78400
0.88780	0.00000	4720.78400
0.89164	0.00000	4720.78400
0.89547	0.00000	4720.78400
0.89931	0.00000	4720.78400
0.90315	0.00000	4720.78400
0.90698	0.00000	4720.78400
0.91081	0.00000	4720.78400
0.91464	0.00000	4720.78400
0.91846	0.00000	4720.78400
0.92229	0.00000	4729.35200
0.92613	0.00000	4729.35200
0.92996	0.00000	4729.35200
0.93379	0.00000	4729.35200
0.93762	0.00000	4729.35200
0.94146	0.00000	4712.61200
0.94528	0.00000	4712.61200
0.94912	0.00000	4712.61200
0.95295	0.00000	4712.61200
0.95678	0.00000	4712.61200
0.96062	0.00000	4712.61200
0.96444	0.00000	4718.01000
0.96827	0.00000	4718.01000
0.97210	0.00000	4718.01000
0.97594	0.00000	4718.01000
0.97977	0.00000	4718.01000
0.98361	0.00000	4718.01000
0.98744	0.00000	4720.78400
0.99127	0.00000	4720.78400
0.99510	0.00000	4720.78400
0.99892	0.00000	4720.78400
1.00271	0.00000	4720.78400
1.00654	0.00000	4720.78400
1.01037	0.00000	4698.59400
1.01420	0.00000	4698.59400
1.01803	0.00000	4698.59400
1.02185	0.00000	4698.59400
1.02567	0.00000	4698.59400
1.02950	0.00000	4704.24100
1.03333	0.00000	4704.24100
1.03716	0.00000	4704.24100
1.04099	0.00000	4704.24100
1.04484	0.00000	4704.24100
1.04866	0.00000	4704.24100
1.05249	0.00000	4723.77200
1.05632	0.00000	4723.77200
1.06014	0.00000	4723.77200
1.06397	0.00000	4723.77200
1.06780	0.00000	4723.77200
1.07164	0.00000	4723.77200
1.07547	0.00000	4709.68900
1.07930	0.00000	4709.68900
1.08313	0.00000	4709.68900
1.08696	0.00000	4709.68900
1.09079	0.00000	4709.68900
1.09462	0.00000	4709.68900
1.09845	0.00000	4720.78400
1.10228	0.00000	4720.78400
1.10611	0.00000	4720.78400
1.10994	0.00000	4720.78400
1.11377	0.00000	4720.78400
1.11760	0.00000	4732.41000
1.12142	0.00000	4732.41000
1.12526	0.00000	4732.41000
1.12910	0.00000	4732.41000
1.13293	0.00000	4732.41000
1.13676	0.00000	4732.41000
1.14058	0.00000	4695.82100
1.14442	0.00000	4695.82100
1.14825	0.00000	4695.82100
1.15207	0.00000	4695.82100
1.15590	0.00000	4695.82100
1.15974	0.00000	4695.82100
1.16357	0.00000	4720.78400
1.16740	0.00000	4720.78400
1.17123	0.00000	4720.78400
1.17506	0.00000	4720.78400
1.17889	0.00000	4720.78400
1.18272	0.00000	4720.78400
1.18655	0.00000	4698.59400
1.19038	0.00000	4698.59400
1.19421	0.00000	4698.59400
1.19804	0.00000	4698.59400
1.20188	0.00000	4698.59400
1.20571	0.00000	4712.61200
1.20954	0.00000	4712.61200
1.21336	0.00000	4712.61200
1.21719	0.00000	4712.61200
1.22102	0.00000	4712.61200
1.22484	0.00000	4712.61200
1.22867	0.00000	4712.61200
1.23250	0.00000	4712.61200
1.23634	0.00000	4712.61200
1.24016	0.00000	4712.61200
1.24400	0.00000	4712.61200
1.24784	0.00000	4712.61200
1.25167	0.00000	4720.78400
1.25550	0.00000	4720.78400
1.25933	0.00000	4720.78400
1.26317	0.00000	4720.78400
1.26700	0.00000	4720.78400
1.27083	0.00000	4720.78400
1.27466	0.00000	4706.91500
1.27850	0.00000	4706.91500
1.28233	0.00000	4706.91500
1.28616	0.00000	4706.91500
1.28999	0.00000	4706.91500
1.29382	0.00000	4709.82100
1.29765	0.00000	4709.82100
1.30149	0.00000	4709.82100
1.30532	0.00000	4709.82100
1.30915	0.00000	4709.82100
1.31297	0.00000	4709.82100
1.31680	0.00000	4712.61200
1.32062	0.00000	4712.61200
1.32445	0.00000	4712.61200
1.32829	0.00000	4712.61200
1.33212	0.00000	4712.61200
1.33594	0.00000	4712.61200
1.33978	0.00000	4712.46300
1.34361	0.00000	4712.46300
1.34744	0.00000	4712.46300
1.35127	0.00000	4712.46300
1.35510	0.00000	4712.46300
1.35893	0.00000	4712.46300
1.36277	0.00000	4698.59400
1.36661	0.00000	4698.59400
1.37044	0.00000	4698.59400
1.37428	0.00000	4698.59400
1.37810	0.00000	4698.59400
1.38193	0.00000	4707.03100
1.38577	0.00000	4707.03100
1.38960	0.00000	4707.03100
1.39344	0.00000	4707.03100
1.39727	0.00000	4707.03100
1.40110	0.00000	4707.03100
1.40493	0.00000	4712.46300
1.40876	0.00000	4712.46300
1.41259	0.00000	4712.46300
1.41642	0.00000	4712.46300
1.42026	0.00000	4712.46300
1.42409	0.00000	4712.46300
1.42792	0.00000	4718.01000
1.43175	0.00000	4718.01000
1.43559	0.00000	4718.01000
1.43942	0.00000	4718.01000
1.44325	0.00000	4718.01000
1.44710	0.00000	4718.01000
1.45092	0.00000	4740.19900
1.45471	0.00000	4740.19900
1.45855	0.00000	4740.19900
1.46238	0.00000	4740.19900
1.46620	0.00000	4740.19900
1.47003	0.00000	4693.04700
1.47388	0.00000	4693.04700
1.47770	0.00000	4693.04700
1.48152	0.00000	4693.04700
1.48535	0.00000	4693.04700
1.48918	0.00000	4693.04700
1.49301	0.00000	4698.59400
1.49686	0.00000	4698.59400
1.50068	0.00000	4698.59400
1.50451	0.00000	4698.59400
1.50834	0.00000	4698.59400
1.51217	0.00000	4698.59400
1.51603	0.00000	4731.87800
1.51988	0.00000	4731.87800
1.52373	0.00000	4731.87800
1.52756	0.00000	4731.87800
1.53139	0.00000	4731.87800
1.53522	0.00000	4731.87800
1.53906	0.00000	4709.68900
1.54289	0.00000	4709.68900
1.54671	0.00000	4709.68900
1.55054	0.00000	4709.68900
1.55437	0.00000	4709.68900
1.55820	0.00000	4718.19200
1.56204	0.00000	4718.19200
1.56589	0.00000	4718.19200
1.56972	0.00000	4718.19200
1.57357	0.00000	4718.19200
1.57741	0.00000	4718.19200
1.58123	0.00000	4706.91500
1.58507	0.00000	4706.91500
1.58891	0.00000	4706.91500
1.59274	0.00000	4706.91500
1.59657	0.00000	4706.91500
1.60040	0.00000	4706.91500
1.60422	0.00000	4729.10500
1.60806	0.00000	4729.10500
1.61188	0.00000	4729.10500
1.61572	0.00000	4729.10500
1.61955	0.00000	4729.10500
1.62339	0.00000	4729.10500
1.62722	0.00000	4718.01000
1.63105	0.00000	4718.01000
1.63488	0.00000	4718.01000
1.63872	0.00000	4718.01000
1.64254	0.00000	4718.01000
1.64638	0.00000	4718.19200
1.65021	0.00000	4718.19200
1.65403	0.00000	4718.19200
1.65786	0.00000	4718.19200
1.66169	0.00000	4718.19200
1.66553	0.00000	4718.19200
1.66936	0.00000	4709.68900
1.67319	0.00000	4709.68900
1.67701	0.00000	4709.68900
1.68084	0.00000	4709.68900
1.68467	0.00000	4709.68900
1.68850	0.00000	4709.68900
1.69233	0.00000	4715.23700
1.69616	0.00000	4715.23700
1.69999	0.00000	4715.23700
1.70381	0.00000	4715.23700
1.70764	0.00000	4715.23700
1.71147	0.00000	4715.23700
1.71531	0.00000	4698.52900
1.71914	0.00000	4698.52900
1.72297	0.00000	4698.52900
1.72680	0.00000	4698.52900
1.73064	0.00000	4698.52900
1.73447	0.00000	4732.14200
1.73832	0.00000	4732.14200
1.74215	0.00000	4732.14200
1.74598	0.00000	4732.14200
1.74981	0.00000	4732.14200
1.75364	0.00000	4732.14200
1.75747	0.00000	4720.98200
1.76130	0.00000	4720.98200
1.76512	0.00000	4720.98200
1.76895	0.00000	4720.98200
1.77279	0.00000	4720.98200
1.77662	0.00000	4720.98200
1.78046	0.00000	4718.01000
1.78430	0.00000	4718.01000
1.78813	0.00000	4718.01000
1.79196	0.00000	4718.01000
1.79578	0.00000	4718.01000
1.79962	0.00000	4718.01000
1.80346	0.00000	4698.52900
1.80729	0.00000	4698.52900
1.81111	0.00000	4698.52900
1.81495	0.00000	4698.52900
1.81879	0.00000	4698.52900
1.82262	0.00000	4726.56200
1.82644	0.00000	4726.56200
1.83027	0.00000	4726.56200
1.83410	0.00000	4726.56200
1.83794	0.00000	4726.56200
1.84178	0.00000	4726.56200
1.84560	0.00000	4723.77200
1.84943	0.00000	4723.77200
1.85327	0.00000	4723.77200
1.85710	0.00000	4723.77200
1.86094	0.00000	4723.77200
1.86476	0.00000	4723.77200
1.86859	0.00000	4712.46300
1.87241	0.00000	4712.46300
1.87625	0.00000	4712.46300
1.88009	0.00000	4712.46300
1.88392	0.00000	4712.46300
1.88776	0.00000	4712.46300
1.89160	0.00000	4709.55900
1.89543	0.00000	4709.55900
1.89925	0.00000	4709.55900
1.90308	0.00000	4709.55900
1.90691	0.00000	4709.55900
1.91071	0.00000	4715.40200
1.91455	0.00000	4715.40200
1.91837	0.00000	4715.40200
1.92219	0.00000	4715.40200
1.92602	0.00000	4715.40200
1.92985	0.00000	4715.40200
1.93368	0.00000	4729.35200
1.93751	0.00000	4729.35200
1.94135	0.00000	4729.35200
1.94519	0.00000	4729.35200
1.94902	0.00000	4729.35200
1.95285	0.00000	4729.35200
1.95669	0.00000	4695.77200
1.96052	0.00000	4695.77200
1.96436	0.00000	4695.77200
1.96820	0.00000	4695.77200
1.97204	0.00000	4695.77200
1.97587	0.00000	4695.77200
1.97969	0.00000	4723.55700
1.98353	0.00000	4723.55700
1.98736	0.00000	4723.55700
1.99119	0.00000	4723.55700
1.99502	0.00000	4723.55700
1.99886	0.00000	4729.35200
2.00268	0.00000	4729.35200
2.00651	0.00000	4729.35200
2.01034	0.00000	4729.35200
2.01418	0.00000	4729.35200
2.01801	0.00000	4729.35200
2.02184	0.00000	4723.77200
2.02568	0.00000	4723.77200
2.02952	0.00000	4723.77200
2.03335	0.00000	4723.77200
2.03717	0.00000	4723.77200
2.04100	0.00000	4723.77200
2.04483	0.00000	4698.52900
2.04866	0.00000	4698.52900
2.05249	0.00000	4698.52900
2.05632	0.00000	4698.52900
2.06015	0.00000	4698.52900
2.06400	0.00000	4698.52900
2.06782	0.00000	4726.33100
2.07164	0.00000	4726.33100
2.07547	0.00000	4726.33100
2.07930	0.00000	4726.33100
2.08314	0.00000	4726.33100
2.08697	0.00000	4726.33100
2.09080	0.00000	4715.23700
2.09463	0.00000	4715.23700
2.09845	0.00000	4715.23700
2.10228	0.00000	4715.23700
2.10611	0.00000	4715.23700
2.10994	0.00000	4706.91500
2.11378	0.00000	4706.91500
2.11761	0.00000	4706.91500
2.12144	0.00000	4706.91500
2.12527	0.00000	4706.91500
2.12910	0.00000	4706.91500
2.13294	0.00000	4726.33100
2.13677	0.00000	4726.33100
2.14060	0.00000	4726.33100
2.14443	0.00000	4726.33100
2.14826	0.00000	4726.33100
2.15209	0.00000	4726.33100
2.15593	0.00000	4729.10500
2.15976	0.00000	4729.10500
2.16358	0.00000	4729.10500
2.16742	0.00000	4729.10500
2.17126	0.00000	4729.10500
2.17509	0.00000	4729.10500
2.17891	0.00000	4712.46300
2.18272	0.00000	4712.46300
2.18655	0.00000	4712.46300
2.19039	0.00000	4712.46300
2.19422	0.00000	4712.46300
2.19806	0.00000	4732.14200
2.20191	0.00000	4732.14200
2.20574	0.00000	4732.14200
2.20957	0.00000	4732.14200
2.21341	0.00000	4732.14200
2.21725	0.00000	4732.14200
2.22108	0.00000	4712.31600
2.22491	0.00000	4712.31600
2.22875	0.00000	4712.31600
2.23258	0.00000	4712.31600
2.23641	0.00000	4712.31600
2.24025	0.00000	4712.31600
2.24408	0.00000	4701.28600
2.24791	0.00000	4701.28600
2.25174	0.00000	4701.28600
2.25558	0.00000	4701.28600
2.25942	0.00000	4701.28600
2.26324	0.00000	4701.28600
2.26707	0.00000	4726.33100
2.27089	0.00000	4726.33100
2.27471	0.00000	4726.33100
2.27855	0.00000	4726.33100
2.28237	0.00000	4726.33100
2.28620	0.00000	4743.30300
2.29005	0.00000	4743.30300
2.29389	0.00000	4743.30300
2.29771	0.00000	4743.30300
2.30154	0.00000	4743.30300
2.30538	0.00000	4743.30300
2.30921	0.00000	4742.97300
2.31304	0.00000	4742.97300
2.31687	0.00000	4742.97300
2.32070	0.00000	4742.97300
2.32453	0.00000	4742.97300
2.32836	0.00000	4742.97300
2.33219	0.00000	4737.42600
2.33602	0.00000	4737.42600
2.33985	0.00000	4737.42600
2.34368	0.00000	4737.42600
2.34751	0.00000	4737.42600
2.35136	0.00000	4737.42600
2.35520	0.00000	4701.28600
2.35904	0.00000	4701.28600
2.36287	0.00000	4701.28600
2.36669	0.00000	4701.28600
2.37053	0.00000	4701.28600
2.37435	0.00000	4726.56200
2.37819	0.00000	4726.56200
2.38202	0.00000	4726.56200
2.38586	0.00000	4726.56200
2.38969	0.00000	4726.56200
2.39351	0.00000	4726.56200
2.39734	0.00000	4723.55700
2.40118	0.00000	4723.55700
2.40501	0.00000	4723.55700
2.40884	0.00000	4723.55700
2.41267	0.00000	4723.55700
2.41650	0.00000	4723.55700
2.42033	0.00000	4706.80200
2.42417	0.00000	4706.80200
2.42800	0.00000	4706.80200
2.43182	0.00000	4706.80200
2.43565	0.00000	4706.80200
2.43949	0.00000	4706.80200
2.44332	0.00000	4706.80200
2.44716	0.00000	4706.80200
2.45100	0.00000	4706.80200
2.45483	0.00000	4706.80200
2.45865	0.00000	4706.80200
2.46249	0.00000	4734.93300
2.46631	0.00000	4734.93300
2.47015	0.00000	4734.93300
2.47398	0.00000	4734.93300
2.47781	0.00000	4734.93300
2.48164	0.00000	4734.93300
2.48546	0.00000	4706.91500
2.48929	0.00000	4706.91500
2.49312	0.00000	4706.91500
2.49695	0.00000	4706.91500
2.50078	0.00000	4706.91500
2.50462	0.00000	4706.91500
2.50845	0.00000	4720.78400
2.51228	0.00000	4720.78400
2.51612	0.00000	4720.78400
2.51998	0.00000	4720.78400
2.52382	0.00000	4720.78400
2.52767	0.00000	4720.78400
2.53150	0.00000	4737.42600
2.53533	0.00000	4737.42600
2.53917	0.00000	4737.42600
2.54300	0.00000	4737.42600
2.54683	0.00000	4737.42600
2.55068	0.00000	4701.36800
2.55450	0.00000	4701.36800
2.55833	0.00000	4701.36800
2.56216	0.00000	4701.36800
2.56600	0.00000	4701.36800
2.56982	0.00000	4701.36800
2.57365	0.00000	4726.56200
2.57746	0.00000	4726.56200
2.58128	0.00000	4726.56200
2.58511	0.00000	4726.56200
2.58894	0.00000	4726.56200
2.59276	0.00000	4726.56200
2.59658	0.00000	4704.04400
2.60040	0.00000	4704.04400
2.60422	0.00000	4704.04400
2.60805	0.00000	4704.04400
2.61188	0.00000	4704.04400
2.61570	0.00000	4704.04400
2.61952	0.00000	4731.87800
2.62334	0.00000	4731.87800
2.62716	0.00000	4731.87800
2.63098	0.00000	4731.87800
2.63479	0.00000	4731.87800
2.63861	0.00000	4731.87800
2.64243	0.00000	4720.78400
2.64624	0.00000	4720.78400
2.65007	0.00000	4720.78400
2.65389	0.00000	4720.78400
2.65773	0.00000	4720.78400
2.66156	0.00000	4723.77200
2.66541	0.00000	4723.77200
2.66924	0.00000	4723.77200
2.67308	0.00000	4723.77200
2.67691	0.00000	4723.77200
2.68075	0.00000	4723.77200
2.68459	0.00000	4720.78400
2.68842	0.00000	4720.78400
2.69225	0.00000	4720.78400
2.69608	0.00000	4720.78400
2.69991	0.00000	4720.78400
2.70376	0.00000	4720.78400
2.70760	0.00000	4698.52900
2.71144	0.00000	4698.52900
2.71528	0.00000	4698.52900
2.71910	0.00000	4698.52900
2.72293	0.00000	4698.52900
2.72677	0.00000	4698.52900
2.73060	0.00000	4723.55700
2.73443	0.00000	4723.55700
2.73827	0.00000	4723.55700
2.74211	0.00000	4723.55700
2.74593	0.00000	4723.55700
2.74977	0.00000	4729.35200
2.75363	0.00000	4729.35200
2.75746	0.00000	4729.35200
2.76130	0.00000	4729.35200
2.76514	0.00000	4729.35200
2.76897	0.00000	4729.35200
2.77281	0.00000	4709.55900
2.77664	0.00000	4709.55900
2.78047	0.00000	4709.55900
2.78431	0.00000	4709.55900
2.78814	0.00000	4709.55900
2.79197	0.00000	4709.55900
2.79580	0.00000	4720.78400
2.79963	0.00000	4720.78400
2.80348	0.00000	4720.78400
2.80731	0.00000	4720.78400
2.81115	0.00000	4720.78400
2.81498	0.00000	4720.78400
2.81881	0.00000	4726.33100
2.82265	0.00000	4726.33100
2.82648	0.00000	4726.33100
2.83030	0.00000	4726.33100
2.83414	0.00000	4726.33100
2.83798	0.00000	4695.82100
2.84182	0.00000	4695.82100
2.84564	0.00000	4695.82100
2.84947	0.00000	4695.82100
2.85330	0.00000	4695.82100
2.85713	0.00000	4695.82100
2.86097	0.00000	4731.87800
2.86480	0.00000	4731.87800
2.86864	0.00000	4731.87800
2.87247	0.00000	4731.87800
2.87629	0.00000	4731.87800
2.88012	0.00000	4731.87800
2.88395	0.00000	4729.10500
2.88778	0.00000	4729.10500
2.89161	0.00000	4729.10500
2.89544	0.00000	4729.10500
2.89928	0.00000	4729.10500
2.90311	0.00000	4729.10500
2.90695	0.00000	4715.23700
2.91080	0.00000	4715.23700
2.91463	0.00000	4715.23700
2.91847	0.00000	4715.23700
2.92230	0.00000	4715.23700
2.92613	0.00000	4720.98200
2.92996	0.00000	4720.98200
2.93379	0.00000	4720.98200
2.93763	0.00000	4720.98200
2.94146	0.00000	4720.98200
2.94530	0.00000	4720.98200
2.94912	0.00000	4718.01000
2.95295	0.00000	4718.01000
2.95678	0.00000	4718.01000
2.96061	0.00000	4718.01000
2.96443	0.00000	4718.01000
2.96827	0.00000	4718.01000
2.97210	0.00000	4729.10500
2.97594	0.00000	4729.10500
2.97976	0.00000	4729.10500
2.98360	0.00000	4729.10500
2.98743	0.00000	4729.10500
2.99127	0.00000	4729.10500
2.99509	0.00000	4684.74200
2.99892	0.00000	4684.74200
3.00276	0.00000	4684.74200
3.00659	0.00000	4684.74200
3.01042	0.00000	4684.74200
3.01425	0.00000	4720.98200
3.01808	0.00000	4720.98200
3.02190	0.00000	4720.98200
3.02574	0.00000	4720.98200
3.02958	0.00000	4720.98200
3.03340	0.00000	4720.98200
3.03723	0.00000	4715.23700
3.04106	0.00000	4715.23700
3.04488	0.00000	4715.23700
3.04871	0.00000	4715.23700
3.05255	0.00000	4715.23700
3.05638	0.00000	4715.23700
3.06022	0.00000	4718.01000
3.06406	0.00000	4718.01000
3.06788	0.00000	4718.01000
3.07172	0.00000	4718.01000
3.07555	0.00000	4718.01000
3.07938	0.00000	4718.01000
3.08321	0.00000	4698.52900
3.08705	0.00000	4698.52900
3.09089	0.00000	4698.52900
3.09472	0.00000	4698.52900
3.09855	0.00000	4698.52900
3.10239	0.00000	4720.98200
3.10621	0.00000	4720.98200
3.11006	0.00000	4720.98200
3.11388	0.00000	4720.98200
3.11772	0.00000	4720.98200
3.12155	0.00000	4720.98200
3.12538	0.00000	4720.78400
3.12921	0.00000	4720.78400
3.13304	0.00000	4720.78400
3.13687	0.00000	4720.78400
3.14070	0.00000	4720.78400
3.14455	0.00000	4720.78400
3.14838	0.00000	4712.31600
3.15222	0.00000	4712.31600
3.15605	0.00000	4712.31600
3.15988	0.00000	4712.31600
3.16371	0.00000	4712.31600
3.16755	0.00000	4712.31600
3.17138	0.00000	4723.55700
3.17520	0.00000	4723.55700
3.17904	0.00000	4723.55700
3.18287	0.00000	4723.55700
3.18671	0.00000	4723.55700
3.19054	0.00000	4718.19200
3.19438	0.00000	4718.19200
3.19822	0.00000	4718.19200
3.20205	0.00000	4718.19200
3.20588	0.00000	4718.19200
3.20971	0.00000	4718.19200
3.21355	0.00000	4732.14200
3.21738	0.00000	4732.14200
3.22121	0.00000	4732.14200
3.22504	0.00000	4732.14200
3.22889	0.00000	4732.14200
3.23273	0.00000	4732.14200
3.23656	0.00000	4706.80200
3.24040	0.00000	4706.80200
3.24422	0.00000	4706.80200
3.24806	0.00000	4706.80200
3.25189	0.00000	4706.80200
3.25573	0.00000	4706.80200
3.25955	0.00000	4723.55700
3.26339	0.00000	4723.55700
3.26721	0.00000	4723.55700
3.27105	0.00000	4723.55700
3.27489	0.00000	4723.55700
3.27871	0.00000	4729.35200
3.28254	0.00000	4729.35200
3.28637	0.00000	4729.35200
3.29020	0.00000	4729.35200
3.29405	0.00000	4729.35200
3.29788	0.00000	4729.35200
3.30171	0.00000	4737.72300
3.30555	0.00000	4737.72300
3.30938	0.00000	4737.72300
3.31322	0.00000	4737.72300
3.31705	0.00000	4737.72300
3.32088	0.00000	4737.72300
3.32472	0.00000	4726.33100
3.32856	0.00000	4726.33100
3.33240	0.00000	4726.33100
3.33624	0.00000	4726.33100
3.34007	0.00000	4726.33100
3.34390	0.00000	4726.33100
3.34773	0.00000	4715.07300
3.35156	0.00000	4715.07300
3.35539	0.00000	4715.07300
3.35923	0.00000	4715.07300
3.36306	0.00000	4715.07300
3.36689	0.00000	4715.07300
3.37071	0.00000	4706.91500
3.37454	0.00000	4706.91500
3.37837	0.00000	4706.91500
3.38219	0.00000	4706.91500
3.38602	0.00000	4706.91500
3.38987	0.00000	4720.98200
3.39371	0.00000	4720.98200
3.39754	0.00000	4720.98200
3.40137	0.00000	4720.98200
3.40519	0.00000	4720.98200
3.40903	0.00000	4720.98200
3.41286	0.00000	4729.10500
3.41669	0.00000	4729.10500
3.42052	0.00000	4729.10500
3.42435	0.00000	4729.10500
3.42819	0.00000	4729.10500
3.43202	0.00000	4729.10500
3.43586	0.00000	4726.33100
3.43969	0.00000	4726.33100
3.44352	0.00000	4726.33100
3.44736	0.00000	4726.33100
3.45120	0.00000	4726.33100
3.45503	0.00000	4726.33100
3.45885	0.00000	4726.33100
3.46268	0.00000	4726.33100
3.46652	0.00000	4726.33100
3.47035	0.00000	4726.33100
3.47419	0.00000	4726.33100
3.47802	0.00000	4712.46300
3.48186	0.00000	4712.46300
3.48569	0.00000	4712.46300
3.48951	0.00000	4712.46300
3.49335	0.00000	4712.46300
3.49720	0.00000	4712.46300
3.50105	0.00000	4723.55700
3.50490	0.00000	4723.55700
3.50873	0.00000	4723.55700
3.51257	0.00000	4723.55700
3.51641	0.00000	4723.55700
3.52026	0.00000	4723.55700
3.52412	0.00000	4693.01400
3.52796	0.00000	4693.01400
3.53178	0.00000	4693.01400
3.53561	0.00000	4693.01400
3.53945	0.00000	4693.01400
3.54328	0.00000	4693.01400
3.54711	0.00000	4718.01000
3.55096	0.00000	4718.01000
3.55480	0.00000	4718.01000
3.55864	0.00000	4718.01000
3.56250	0.00000	4718.01000
3.56634	0.00000	4723.77200
3.57017	0.00000	4723.77200
3.57401	0.00000	4723.77200
3.57784	0.00000	4723.77200
3.58168	0.00000	4723.77200
3.58551	0.00000	4723.77200
3.58934	0.00000	4706.80200
3.59318	0.00000	4706.80200
3.59702	0.00000	4706.80200
3.60084	0.00000	4706.80200
3.60467	0.00000	4706.80200
3.60851	0.00000	4706.80200
3.61235	0.00000	4731.87800
3.61618	0.00000	4731.87800
3.62001	0.00000	4731.87800
3.62384	0.00000	4731.87800
3.62767	0.00000	4731.87800
3.63150	0.00000	4731.87800
3.63533	0.00000	4715.23700
3.63917	0.00000	4715.23700
3.64302	0.00000	4715.23700
3.64685	0.00000	4715.23700
3.65068	0.00000	4715.23700
3.65452	0.00000	4704.14200
3.65836	0.00000	4704.14200
3.66220	0.00000	4704.14200
3.66602	0.00000	4704.14200
3.66985	0.00000	4704.14200
3.67367	0.00000	4704.14200
3.67750	0.00000	4718.01000
3.68134	0.00000	4718.01000
3.68518	0.00000	4718.01000
3.68901	0.00000	4718.01000
3.69284	0.00000	4718.01000
3.69668	0.00000	4718.01000
3.70051	0.00000	4706.80200
3.70435	0.00000	4706.80200
3.70818	0.00000	4706.80200
3.71202	0.00000	4706.80200
3.71586	0.00000	4706.80200
3.71969	0.00000	4706.80200
3.72352	0.00000	4712.46300
3.72735	0.00000	4712.46300
3.73119	0.00000	4712.46300
3.73503	0.00000	4712.46300
3.73886	0.00000	4712.46300
3.74269	0.00000	4720.98200
3.74654	0.00000	4720.98200
3.75037	0.00000	4720.98200
3.75420	0.00000	4720.98200
3.75803	0.00000	4720.98200
3.76187	0.00000	4720.98200
3.76570	0.00000	4718.01000
3.76953	0.00000	4718.01000
3.77336	0.00000	4718.01000
3.77719	0.00000	4718.01000
3.78103	0.00000	4718.01000
3.78486	0.00000	4718.01000
3.78870	0.00000	4726.33100
3.79252	0.00000	4726.33100
3.79636	0.00000	4726.33100
3.80020	0.00000	4726.33100
3.80404	0.00000	4726.33100
3.80788	0.00000	4726.33100
3.81171	0.00000	4712.46300
3.81555	0.00000	4712.46300
3.81937	0.00000	4712.46300
3.82321	0.00000	4712.46300
3.82705	0.00000	4712.46300
3.83088	0.00000	4709.82100
3.83472	0.00000	4709.82100
3.83855	0.00000	4709.82100
3.84238	0.00000	4709.82100
3.84621	0.00000	4709.82100
3.85003	0.00000	4709.82100
3.85386	0.00000	4726.33100
3.85769	0.00000	4726.33100
3.86153	0.00000	4726.33100
3.86536	0.00000	4726.33100
3.86919	0.00000	4726.33100
3.87303	0.00000	4726.33100
3.87686	0.00000	4715.23700
3.88070	0.00000	4715.23700
3.88453	0.00000	4715.23700
3.88837	0.00000	4715.23700
3.89219	0.00000	4715.23700
3.89603	0.00000	4715.23700
3.89986	0.00000	4726.33100
3.90369	0.00000	4726.33100
3.90752	0.00000	4726.33100
3.91135	0.00000	4726.33100
3.91518	0.00000	4726.33100
3.91901	0.00000	4709.82100
3.92286	0.00000	4709.82100
3.92669	0.00000	4709.82100
3.93053	0.00000	4709.82100
3.93435	0.00000	4709.82100
3.93818	0.00000	4709.82100
3.94202	0.00000	4720.78400
3.94585	0.00000	4720.78400
3.94968	0.00000	4720.78400
3.95351	0.00000	4720.78400
3.95734	0.00000	4720.78400
3.96118	0.00000	4720.78400
3.96500	0.00000	4723.55700
3.96883	0.00000	4723.55700
3.97266	0.00000	4723.55700
3.97649	0.00000	4723.55700
3.98032	0.00000	4723.55700
3.98415	0.00000	4723.55700
3.98799	0.00000	4709.68900
3.99182	0.00000	4709.68900
3.99565	0.00000	4709.68900
3.99949	0.00000	4709.68900
4.00332	0.00000	4709.68900
4.00715	0.00000	4735.21700
4.01098	0.00000	4735.21700
4.01482	0.00000	4735.21700
4.01865	0.00000	4735.21700
4.02247	0.00000	4735.21700
4.02630	0.00000	4735.21700
4.03013	0.00000	4720.78400
4.03396	0.00000	4720.78400
4.03779	0.00000	4720.78400
4.04162	0.00000	4720.78400
4.04545	0.00000	4720.78400
4.04928	0.00000	4720.78400
4.05311	0.00000	4712.46300
4.05694	0.00000	4712.46300
4.06077	0.00000	4712.46300
4.06461	0.00000	4712.46300
4.06843	0.00000	4712.46300
4.07227	0.00000	4712.46300
4.07610	0.00000	4704.14200
4.07993	0.00000	4704.14200
4.08375	0.00000	4704.14200
4.08759	0.00000	4704.14200
4.09141	0.00000	4704.14200
4.09524	0.00000	4701.45100
4.09909	0.00000	4701.45100
4.10293	0.00000	4701.45100
4.10671	0.00000	4701.45100
4.11055	0.00000	4701.45100
4.11438	0.00000	4701.45100
4.11821	0.00000	4726.33100
4.12204	0.00000	4726.33100
4.12588	0.00000	4726.33100
4.12971	0.00000	4726.33100
4.13354	0.00000	4726.33100
4.13737	0.00000	4726.33100
4.14120	0.00000	4720.78400
4.14503	0.00000	4720.78400
4.14885	0.00000	4720.78400
4.15270	0.00000	4720.78400
4.15652	0.00000	4720.78400
4.16036	0.00000	4720.78400
4.16419	0.00000	4695.77200
4.16802	0.00000	4695.77200
4.17185	0.00000	4695.77200
4.17569	0.00000	4695.77200
4.17952	0.00000	4695.77200
4.18336	0.00000	4723.77200
4.18719	0.00000	4723.77200
4.19102	0.00000	4723.77200
4.19486	0.00000	4723.77200
4.19869	0.00000	4723.77200
4.20253	0.00000	4723.77200
4.20636	0.00000	4737.72300
4.21019	0.00000	4737.72300
4.21403	0.00000	4737.72300
4.21786	0.00000	4737.72300
4.22169	0.00000	4737.72300
4.22553	0.00000	4737.72300
4.22936	0.00000	4742.97300
4.23319	0.00000	4742.97300
4.23702	0.00000	4742.97300
4.24086	0.00000	4742.97300
4.24469	0.00000	4742.97300
4.24852	0.00000	4742.97300
4.25235	0.00000	4715.23700
4.25618	0.00000	4715.23700
4.26002	0.00000	4715.23700
4.26384	0.00000	4715.23700
4.26768	0.00000	4715.23700
4.27152	0.00000	4726.56200
4.27538	0.00000	4726.56200
4.27921	0.00000	4726.56200
4.28303	0.00000	4726.56200
4.28686	0.00000	4726.56200
4.29070	0.00000	4726.56200
4.29454	0.00000	4704.14200
4.29836	0.00000	4704.14200
4.30219	0.00000	4704.14200
4.30602	0.00000	4704.14200
4.30985	0.00000	4704.14200
4.31369	0.00000	4704.14200
4.31752	0.00000	4729.10500
4.32135	0.00000	4729.10500
4.32518	0.00000	4729.10500
4.32900	0.00000	4729.10500
4.33284	0.00000	4729.10500
4.33667	0.00000	4729.10500
4.34050	0.00000	4709.68900
4.34433	0.00000	4709.68900
4.34816	0.00000	4709.68900
4.35199	0.00000	4709.68900
4.35582	0.00000	4709.68900
4.35967	0.00000	4720.98200
4.36351	0.00000	4720.98200
4.36734	0.00000	4720.98200
4.37117	0.00000	4720.98200
4.37500	0.00000	4720.98200
4.37883	0.00000	4720.98200
4.38266	0.00000	4726.56200
4.38650	0.00000	4726.56200
4.39033	0.00000	4726.56200
4.39416	0.00000	4726.56200
4.39799	0.00000	4726.56200
4.40182	0.00000	4726.56200
4.40565	0.00000	4709.68900
4.40949	0.00000	4709.68900
4.41331	0.00000	4709.68900
4.41715	0.00000	4709.68900
4.42099	0.00000	4709.68900
4.42483	0.00000	4709.68900
4.42868	0.00000	4726.33100
4.43251	0.00000	4726.33100
4.43634	0.00000	4726.33100
4.44017	0.00000	4726.33100
4.44400	0.00000	4726.33100
4.44783	0.00000	4720.98200
4.45166	0.00000	4720.98200
4.45549	0.00000	4720.98200
4.45932	0.00000	4720.98200
4.46316	0.00000	4720.98200
4.46699	0.00000	4720.98200
4.47082	0.00000	4726.56200
4.47467	0.00000	4726.56200
4.47851	0.00000	4726.56200
4.48235	0.00000	4726.56200
4.48617	0.00000	4726.56200
4.49001	0.00000	4726.56200
4.49383	0.00000	4690.25700
4.49767	0.00000	4690.25700
4.50149	0.00000	4690.25700
4.50533	0.00000	4690.25700
4.50916	0.00000	4690.25700
4.51300	0.00000	4690.25700
4.51684	0.00000	4720.78400
4.52069	0.00000	4720.78400
4.52453	0.00000	4720.78400
4.52837	0.00000	4720.78400
4.53222	0.00000	4720.78400
4.53605	0.00000	4707.03100
4.53989	0.00000	4707.03100
4.54373	0.00000	4707.03100
4.54756	0.00000	4707.03100
4.55140	0.00000	4707.03100
4.55522	0.00000	4707.03100
4.55905	0.00000	4712.46300
4.56289	0.00000	4712.46300
4.56672	0.00000	4712.46300
4.57054	0.00000	4712.46300
4.57437	0.00000	4712.46300
4.57821	0.00000	4712.46300
4.58204	0.00000	4706.91500
4.58588	0.00000	4706.91500
4.58972	0.00000	4706.91500
4.59355	0.00000	4706.91500
4.59738	0.00000	4706.91500
4.60121	0.00000	4706.91500
4.60504	0.00000	4690.25700
4.60887	0.00000	4690.25700
4.61270	0.00000	4690.25700
4.61653	0.00000	4690.25700
4.62037	0.00000	4690.25700
4.62421	0.00000	4718.19200
4.62805	0.00000	4718.19200
4.63188	0.00000	4718.19200
4.63571	0.00000	4718.19200
4.63954	0.00000	4718.19200
4.64338	0.00000	4718.19200
4.64723	0.00000	4715.23700
4.65105	0.00000	4715.23700
4.65491	0.00000	4715.23700
4.65871	0.00000	4715.23700
4.66255	0.00000	4715.23700
4.66637	0.00000	4715.23700
4.67020	0.00000	4715.23700
4.67403	0.00000	4715.23700
4.67786	0.00000	4715.23700
4.68169	0.00000	4715.23700
4.68552	0.00000	4715.23700
4.68935	0.00000	4715.23700
4.69319	0.00000	4720.78400
4.69703	0.00000	4720.78400
4.70086	0.00000	4720.78400
4.70469	0.00000	4720.78400
4.70852	0.00000	4720.78400
4.71236	0.00000	4720.98200
4.71619	0.00000	4720.98200
4.72002	0.00000	4720.98200
4.72385	0.00000	4720.98200
4.72768	0.00000	4720.98200
4.73151	0.00000	4720.98200
4.73535	0.00000	4712.46300
4.73919	0.00000	4712.46300
4.74301	0.00000	4712.46300
4.74687	0.00000	4712.46300
4.75071	0.00000	4712.46300
4.75454	0.00000	4712.46300
4.75837	0.00000	4726.33100
4.76223	0.00000	4726.33100
4.76606	0.00000	4726.33100
4.76989	0.00000	4726.33100
4.77373	0.00000	4726.33100
4.77757	0.00000	4726.33100
4.78140	0.00000	4715.23700
4.78524	0.00000	4715.23700
4.78906	0.00000	4715.23700
4.79290	0.00000	4715.23700
4.79674	0.00000	4715.23700
4.80057	0.00000	4715.40200
4.80442	0.00000	4715.40200
4.80825	0.00000	4715.40200
4.81207	0.00000	4715.40200
4.81591	0.00000	4715.40200
4.81974	0.00000	4715.40200
4.82357	0.00000	4704.14200
4.82739	0.00000	4704.14200
4.83123	0.00000	4704.14200
4.83506	0.00000	4704.14200
4.83889	0.00000	4704.14200
4.84272	0.00000	4704.14200
4.84654	0.00000	4693.01400
4.85038	0.00000	4693.01400
4.85421	0.00000	4693.01400
4.85804	0.00000	4693.01400
4.86188	0.00000	4693.01400
4.86571	0.00000	4693.01400
4.86953	0.00000	4723.55700
4.87336	0.00000	4723.55700
4.87720	0.00000	4723.55700
4.88104	0.00000	4723.55700
4.88487	0.00000	4723.55700
4.88871	0.00000	4718.19200
4.89254	0.00000	4718.19200
4.89638	0.00000	4718.19200
4.90021	0.00000	4718.19200
4.90404	0.00000	4718.19200
4.90786	0.00000	4718.19200
4.91169	0.00000	4695.82100
4.91552	0.00000	4695.82100
4.91935	0.00000	4695.82100
4.92319	0.00000	4695.82100
4.92702	0.00000	4695.82100
4.93085	0.00000	4695.82100
4.93468	0.00000	4706.91500
4.93851	0.00000	4706.91500
4.94234	0.00000	4706.91500
4.94618	0.00000	4706.91500
4.95001	0.00000	4706.91500
4.95384	0.00000	4706.91500
4.95767	0.00000	4715.23700
4.96150	0.00000	4715.23700
4.96533	0.00000	4715.23700
4.96916	0.00000	4715.23700
4.97299	0.00000	4715.23700
4.97682	0.00000	4729.35200
4.98066	0.00000	4729.35200
4.98449	0.00000	4729.35200
4.98833	0.00000	4729.35200
4.99216	0.00000	4729.35200
4.99599	0.00000	4729.35200
4.99982	0.00000	4729.35200
5.00416	0.00000	4729.35200
5.00804	0.00000	4729.35200
5.01188	0.00000	4729.35200
5.01573	0.00000	4729.35200
5.01958	0.00000	4729.35200
5.02342	0.00000	4720.78400
5.02727	0.00000	4720.78400
5.03111	0.00000	4720.78400
5.03500	0.00000	4720.78400
5.03888	0.00000	4720.78400
5.04272	0.00000	4720.78400
5.04656	0.00000	4799.23700
5.05040	0.00000	4799.23700
5.05425	0.00000	4799.23700
5.05809	0.00000	4799.23700
5.06192	0.00000	4799.23700
5.06575	0.00000	4799.23700
5.06958	0.00000	5031.94100
5.07344	0.00000	5031.94100
5.07729	0.00000	5031.94100
5.08113	0.00000	5031.94100
5.08497	0.00000	5031.94100
5.08881	0.00000	5031.94100
5.09265	0.00000	5193.45200
5.09650	0.00000	5193.45200
5.10034	0.00000	5193.45200
5.10418	0.00000	5193.45200
5.10802	0.00000	5193.45200
5.11187	0.00000	5193.45200
5.11572	0.00000	5193.45200
5.11956	0.00000	5306.91900
5.12340	0.00000	5306.91900
5.12724	0.00000	5306.91900
5.13110	0.00000	5306.91900
5.13494	0.00000	5306.91900
5.13878	0.00000	5306.91900
5.14262	0.00000	5306.91900
5.14646	0.00000	5390.62500
5.15030	0.00000	5390.62500
5.15414	0.00000	5390.62500
5.15797	0.00000	5390.62500
5.16182	0.00000	5390.62500
5.16566	0.00000	5390.62500
5.16949	0.00000	5426.41600
5.17332	0.00000	5426.41600
5.17717	0.00000	5426.41600
5.18101	0.00000	5426.41600
5.18484	0.00000	5426.41600
5.18868	0.00000	5426.41600
5.19253	0.00000	5426.41600
5.19636	0.00000	5494.02600
5.20020	0.00000	5494.02600
5.20404	0.00000	5494.02600
5.20789	0.00000	5494.02600
5.21173	0.00000	5494.02600
5.21557	0.00000	5494.02600
5.21941	0.00000	5494.02600
5.22326	0.00000	5486.86500
5.22710	0.00000	5486.86500
5.23093	0.00000	5486.86500
5.23477	0.00000	5486.86500
5.23862	0.00000	5486.86500
5.24246	0.00000	5486.86500
5.24629	0.00000	5486.86500
5.25013	0.00000	5532.15600
5.25398	0.00000	5532.15600
5.25783	0.00000	5532.15600
5.26168	0.00000	5532.15600
5.26552	0.00000	5532.15600
5.26936	0.00000	5532.15600
5.27320	0.00000	5532.15600
5.27704	0.00000	5532.60200
5.28087	0.00000	5532.60200
5.28471	0.00000	5532.60200
5.28854	0.00000	5532.60200
5.29239	0.00000	5532.60200
5.29623	0.00000	5532.60200
5.30007	0.00000	5532.60200
5.30391	0.00000	5532.60200
5.30775	0.00000	5530.80100
5.31158	0.00000	5530.80100
5.31543	0.00000	5530.80100
5.31926	0.00000	5530.80100
5.32309	0.00000	5530.80100
5.32693	0.00000	5530.80100
5.33079	0.00000	5530.80100
5.33462	0.00000	5548.74400
5.33845	0.00000	5548.74400
5.34229	0.00000	5548.74400
5.34614	0.00000	5548.74400
5.34997	0.00000	5548.74400
5.35381	0.00000	5548.74400
5.35766	0.00000	5548.74400
5.36151	0.00000	5555.47200
5.36535	0.00000	5555.47200
5.36918	0.00000	5555.47200
5.37301	0.00000	5555.47200
5.37686	0.00000	5555.47200
5.38070	0.00000	5555.47200
5.38454	0.00000	5555.47200
5.38838	0.00000	5562.20100
5.39223	0.00000	5562.20100
5.39607	0.00000	5562.20100
5.39990	0.00000	5562.20100
5.40374	0.00000	5562.20100
5.40759	0.00000	5562.20100
5.41142	0.00000	5562.20100
5.41526	0.00000	5571.17200
5.41909	0.00000	5571.17200
5.42294	0.00000	5571.17200
5.42679	0.00000	5571.17200
5.43065	0.00000	5571.17200
5.43449	0.00000	5571.17200
5.43832	0.00000	5571.17200
5.44216	0.00000	5571.17200
5.44600	0.00000	5571.17200
5.44984	0.00000	5571.17200
5.45368	0.00000	5571.17200
5.45752	0.00000	5571.17200
5.46138	0.00000	5571.17200
5.46523	0.00000	5571.17200
5.46908	0.00000	5546.87500
5.47292	0.00000	5546.87500
5.47676	0.00000	5546.87500
5.48060	0.00000	5546.87500
5.48445	0.00000	5546.87500
5.48829	0.00000	5546.87500
5.49212	0.00000	5546.87500
5.49597	0.00000	5553.57100
5.49981	0.00000	5553.57100
5.50365	0.00000	5553.57100
5.50748	0.00000	5553.57100
5.51132	0.00000	5553.57100
5.51516	0.00000	5553.57100
5.51902	0.00000	5553.57100
5.52286	0.00000	5546.87500
5.52671	0.00000	5546.87500
5.53055	0.00000	5546.87500
5.53438	0.00000	5546.87500
5.53823	0.00000	5546.87500
5.54206	0.00000	5546.87500
5.54590	0.00000	5546.87500
5.54973	0.00000	5544.64200
5.55357	0.00000	5544.64200
5.55741	0.00000	5544.64200
5.56126	0.00000	5544.64200
5.56510	0.00000	5544.64200
5.56894	0.00000	5544.64200
5.57278	0.00000	5544.64200
5.57661	0.00000	5544.64200
5.58045	0.00000	5551.33900
5.58429	0.00000	5551.33900
5.58813	0.00000	5551.33900
5.59196	0.00000	5551.33900
5.59579	0.00000	5551.33900
5.59964	0.00000	5551.33900
5.60348	0.00000	5551.33900
5.60731	0.00000	5546.87500
5.61114	0.00000	5546.87500
5.61498	0.00000	5546.87500
5.61881	0.00000	5546.87500
5.62266	0.00000	5546.87500
5.62651	0.00000	5546.87500
5.63035	0.00000	5546.87500
5.63418	0.00000	5551.33900
5.63802	0.00000	5551.33900
5.64186	0.00000	5551.33900
5.64570	0.00000	5551.33900
5.64954	0.00000	5551.33900
5.65337	0.00000	5551.33900
5.65721	0.00000	5551.33900
5.66106	0.00000	5551.33900
5.66490	0.00000	5551.33900
5.66873	0.00000	5551.33900
5.67257	0.00000	5551.33900
5.67642	0.00000	5551.33900
5.68025	0.00000	5551.33900
5.68410	0.00000	5551.33900
5.68794	0.00000	5575.65800
5.69178	0.00000	5575.65800
5.69562	0.00000	5575.65800
5.69946	0.00000	5575.65800
5.70329	0.00000	5575.65800
5.70713	0.00000	5575.65800
5.71096	0.00000	5575.65800
5.71482	0.00000	5549.10700
5.71866	0.00000	5549.10700
5.72251	0.00000	5549.10700
5.72635	0.00000	5549.10700
5.73019	0.00000	5549.10700
5.73401	0.00000	5549.10700
5.73787	0.00000	5549.10700
5.74170	0.00000	5546.87500
5.74554	0.00000	5546.87500
5.74938	0.00000	5546.87500
5.75323	0.00000	5546.87500
5.75706	0.00000	5546.87500
5.76091	0.00000	5546.87500
5.76475	0.00000	5546.87500
5.76859	0.00000	5549.10700
5.77245	0.00000	5549.10700
5.77629	0.00000	5549.10700
5.78012	0.00000	5549.10700
5.78396	0.00000	5549.10700
5.78780	0.00000	5549.10700
5.79164	0.00000	5549.10700
5.79547	0.00000	5549.10700
5.79931	0.00000	5549.10700
5.80315	0.00000	5549.10700
5.80698	0.00000	5549.10700
5.81081	0.00000	5549.10700
5.81465	0.00000	5549.10700
5.81849	0.00000	5549.10700
5.82234	0.00000	5549.10700
5.82617	0.00000	5551.33900
5.83001	0.00000	5551.33900
5.83385	0.00000	5551.33900
5.83770	0.00000	5551.33900
5.84154	0.00000	5551.33900
5.84538	0.00000	5551.33900
5.84921	0.00000	5551.33900
5.85306	0.00000	5549.10700
5.85690	0.00000	5549.10700
5.86074	0.00000	5549.10700
5.86458	0.00000	5549.10700
5.86843	0.00000	5549.10700
5.87226	0.00000	5549.10700
5.87609	0.00000	5549.10700
5.87993	0.00000	5546.87500
5.88378	0.00000	5546.87500
5.88762	0.00000	5546.87500
5.89145	0.00000	5546.87500
5.89529	0.00000	5546.87500
5.89914	0.00000	5546.87500
5.90298	0.00000	5546.87500
5.90684	0.00000	5546.87500
5.91067	0.00000	5546.87500
5.91452	0.00000	5546.87500
5.91836	0.00000	5546.87500
5.92220	0.00000	5546.87500
5.92603	0.00000	5546.87500
5.92988	0.00000	5546.87500
5.93371	0.00000	5575.65800
5.93756	0.00000	5575.65800
5.94140	0.00000	5575.65800
5.94525	0.00000	5575.65800
5.94908	0.00000	5575.65800
5.95293	0.00000	5575.65800
5.95677	0.00000	5575.65800
5.96061	0.00000	5551.33900
5.96444	0.00000	5551.33900
5.96829	0.00000	5551.33900
5.97212	0.00000	5551.33900
5.97596	0.00000	5551.33900
5.97980	0.00000	5551.33900
5.98365	0.00000	5551.33900
5.98749	0.00000	5549.10700
5.99132	0.00000	5549.10700
5.99516	0.00000	5549.10700
5.99901	0.00000	5549.10700
6.00285	0.00000	5549.10700
6.00669	0.00000	5549.10700
6.01053	0.00000	5549.10700
6.01437	0.00000	5551.33900
6.01822	0.00000	5551.33900
6.02205	0.00000	5551.33900
6.02589	0.00000	5551.33900
6.02973	0.00000	5551.33900
6.03358	0.00000	5551.33900
6.03741	0.00000	5551.33900
6.04125	0.00000	5558.03500
6.04510	0.00000	5558.03500
6.04893	0.00000	5558.03500
6.05277	0.00000	5558.03500
6.05661	0.00000	5558.03500
6.06045	0.00000	5558.03500
6.06428	0.00000	5558.03500
6.06813	0.00000	5558.03500
6.07196	0.00000	5549.10700
6.07581	0.00000	5549.10700
6.07965	0.00000	5549.10700
6.08349	0.00000	5549.10700
6.08733	0.00000	5549.10700
6.09117	0.00000	5549.10700
6.09501	0.00000	5549.10700
6.09885	0.00000	5553.57100
6.10269	0.00000	5553.57100
6.10653	0.00000	5553.57100
6.11038	0.00000	5553.57100
6.11421	0.00000	5553.57100
6.11805	0.00000	5553.57100
6.12189	0.00000	5553.57100
6.12573	0.00000	5555.80300
6.12957	0.00000	5555.80300
6.13341	0.00000	5555.80300
6.13726	0.00000	5555.80300
6.14109	0.00000	5555.80300
6.14493	0.00000	5555.80300
6.14877	0.00000	5555.80300
6.15261	0.00000	5555.80300
6.15645	0.00000	5555.80300
6.16029	0.00000	5555.80300
6.16413	0.00000	5555.80300
6.16797	0.00000	5555.80300
6.17181	0.00000	5555.80300
6.17566	0.00000	5555.80300
6.17950	0.00000	5553.57100
6.18334	0.00000	5553.57100
6.18718	0.00000	5553.57100
6.19102	0.00000	5553.57100
6.19485	0.00000	5553.57100
6.19870	0.00000	5553.57100
6.20254	0.00000	5553.57100
6.20637	0.00000	5555.80300
6.21021	0.00000	5555.80300
6.21406	0.00000	5555.80300
6.21789	0.00000	5555.80300
6.22174	0.00000	5555.80300
6.22557	0.00000	5555.80300
6.22942	0.00000	5555.80300
6.23326	0.00000	5549.10700
6.23709	0.00000	5549.10700
6.24093	0.00000	5549.10700
6.24477	0.00000	5549.10700
6.24860	0.00000	5549.10700
6.25246	0.00000	5549.10700
6.25630	0.00000	5549.10700
6.26014	0.00000	5549.10700
6.26399	0.00000	5549.10700
6.26782	0.00000	5549.10700
6.27166	0.00000	5549.10700
6.27551	0.00000	5549.10700
6.27934	0.00000	5549.10700
6.28318	0.00000	5549.10700
6.28702	0.00000	5555.80300
6.29084	0.00000	5555.80300
6.29468	0.00000	5555.80300
6.29853	0.00000	5555.80300
6.30236	0.00000	5555.80300
6.30620	0.00000	5555.80300
6.31003	0.00000	5555.80300
6.31386	0.00000	5555.80300
6.31769	0.00000	5551.33900
6.32153	0.00000	5551.33900
6.32537	0.00000	5551.33900
6.32921	0.00000	5551.33900
6.33304	0.00000	5551.33900
6.33688	0.00000	5551.33900
6.34072	0.00000	5551.33900
6.34455	0.00000	5553.57100
6.34839	0.00000	5553.57100
6.35223	0.00000	5553.57100
6.35606	0.00000	5553.57100
6.35989	0.00000	5553.57100
6.36372	0.00000	5553.57100
6.36756	0.00000	5553.57100
6.37140	0.00000	5558.03500
6.37523	0.00000	5558.03500
6.37908	0.00000	5558.03500
6.38291	0.00000	5558.03500
6.38672	0.00000	5558.03500
6.39055	0.00000	5558.03500
6.39439	0.00000	5558.03500
6.39823	0.00000	5555.80300
6.40207	0.00000	5555.80300
6.40591	0.00000	5555.80300
6.40976	0.00000	5555.80300
6.41360	0.00000	5555.80300
6.41744	0.00000	5555.80300
6.42127	0.00000	5555.80300
6.42512	0.00000	5553.57100
6.42896	0.00000	5553.57100
6.43279	0.00000	5553.57100
6.43663	0.00000	5553.57100
6.44048	0.00000	5553.57100
6.44431	0.00000	5553.57100
6.44815	0.00000	5553.57100
6.45198	0.00000	5562.50000
6.45584	0.00000	5562.50000
6.45968	0.00000	5562.50000
6.46351	0.00000	5562.50000
6.46735	0.00000	5562.50000
6.47118	0.00000	5562.50000
6.47502	0.00000	5562.50000
6.47888	0.00000	5555.80300
6.48272	0.00000	5555.80300
6.48656	0.00000	5555.80300
6.49040	0.00000	5555.80300
6.49424	0.00000	5555.80300
6.49808	0.00000	5555.80300
6.50193	0.00000	5555.80300
6.50576	0.00000	5558.03500
6.50960	0.00000	5558.03500
6.51344	0.00000	5558.03500
6.51728	0.00000	5558.03500
6.52115	0.00000	5558.03500
6.52499	0.00000	5558.03500
6.52884	0.00000	5558.03500
6.53268	0.00000	5560.26800
6.53652	0.00000	5560.26800
6.54037	0.00000	5560.26800
6.54421	0.00000	5560.26800
6.54806	0.00000	5560.26800
6.55189	0.00000	5560.26800
6.55573	0.00000	5560.26800
6.55958	0.00000	5560.26800
6.56341	0.00000	5558.03500
6.56725	0.00000	5558.03500
6.57108	0.00000	5558.03500
6.57493	0.00000	5558.03500
6.57877	0.00000	5558.03500
6.58260	0.00000	5558.03500
6.58644	0.00000	5558.03500
6.59027	0.00000	5558.03500
6.59412	0.00000	5558.03500
6.59795	0.00000	5558.03500
6.60179	0.00000	5558.03500
6.60563	0.00000	5558.03500
6.60946	0.00000	5558.03500
6.61330	0.00000	5558.03500
6.61714	0.00000	5555.80300
6.62097	0.00000	5555.80300
6.62481	0.00000	5555.80300
6.62864	0.00000	5555.80300
6.63248	0.00000	5555.80300
6.63635	0.00000	5555.80300
6.64018	0.00000	5555.80300
6.64402	0.00000	5558.03500
6.64787	0.00000	5558.03500
6.65170	0.00000	5558.03500
6.65554	0.00000	5558.03500
6.65937	0.00000	5558.03500
6.66322	0.00000	5558.03500
6.66706	0.00000	5558.03500
6.67090	0.00000	5558.03500
6.67472	0.00000	5558.03500
6.67858	0.00000	5558.03500
6.68242	0.00000	5558.03500
6.68627	0.00000	5558.03500
6.69011	0.00000	5558.03500
6.69395	0.00000	5558.03500
6.69780	0.00000	5558.03500
6.70164	0.00000	5558.03500
6.70549	0.00000	5558.03500
6.70933	0.00000	5558.03500
6.71318	0.00000	5558.03500
6.71702	0.00000	5558.03500
6.72086	0.00000	5558.03500
6.72469	0.00000	5555.80300
6.72854	0.00000	5555.80300
6.73237	0.00000	5555.80300
6.73621	0.00000	5555.80300
6.74005	0.00000	5555.80300
6.74390	0.00000	5555.80300
6.74774	0.00000	5555.80300
6.75158	0.00000	5558.03500
6.75544	0.00000	5558.03500
6.75928	0.00000	5558.03500
6.76313	0.00000	5558.03500
6.76697	0.00000	5558.03500
6.77081	0.00000	5558.03500
6.77468	0.00000	5558.03500
6.77854	0.00000	5582.38600
6.78239	0.00000	5582.38600
6.78622	0.00000	5582.38600
6.79005	0.00000	5582.38600
6.79389	0.00000	5582.38600
6.79774	0.00000	5582.38600
6.80157	0.00000	5582.38600
6.80541	0.00000	5582.38600
6.80925	0.00000	5564.73200
6.81310	0.00000	5564.73200
6.81693	0.00000	5564.73200
6.82076	0.00000	5564.73200
6.82460	0.00000	5564.73200
6.82844	0.00000	5564.73200
6.83228	0.00000	5564.73200
6.83612	0.00000	5558.03500
6.83996	0.00000	5558.03500
6.84380	0.00000	5558.03500
6.84763	0.00000	5558.03500
6.85147	0.00000	5558.03500
6.85533	0.00000	5558.03500
6.85916	0.00000	5558.03500
6.86301	0.00000	5562.50000
6.86686	0.00000	5562.50000
6.87070	0.00000	5562.50000
6.87454	0.00000	5562.50000
6.87837	0.00000	5562.50000
6.88222	0.00000	5562.50000
6.88605	0.00000	5562.50000
6.88989	0.00000	5560.26800
6.89373	0.00000	5560.26800
6.89756	0.00000	5560.26800
6.90141	0.00000	5560.26800
6.90525	0.00000	5560.26800
6.90909	0.00000	5560.26800
6.91293	0.00000	5560.26800
6.91676	0.00000	5558.03500
6.92060	0.00000	5558.03500
6.92443	0.00000	5558.03500
6.92827	0.00000	5558.03500
6.93211	0.00000	5558.03500
6.93595	0.00000	5558.03500
6.93979	0.00000	5558.03500
6.94362	0.00000	5582.38600
6.94745	0.00000	5582.38600
6.95128	0.00000	5582.38600
6.95511	0.00000	5582.38600
6.95896	0.00000	5582.38600
6.96279	0.00000	5582.38600
6.96663	0.00000	5582.38600
6.97046	0.00000	5560.26800
6.97432	0.00000	5560.26800
6.97816	0.00000	5560.26800
6.98199	0.00000	5560.26800
6.98584	0.00000	5560.26800
6.98968	0.00000	5560.26800
6.99351	0.00000	5560.26800
6.99736	0.00000	5553.57100
7.00121	0.00000	5553.57100
7.00504	0.00000	5553.57100
7.00888	0.00000	5553.57100
7.01272	0.00000	5553.57100
7.01656	0.00000	5553.57100
7.02040	0.00000	5553.57100
7.02424	0.00000	5553.57100
7.02807	0.00000	5555.80300
7.03191	0.00000	5555.80300
7.03577	0.00000	5555.80300
7.03960	0.00000	5555.80300
7.04344	0.00000	5555.80300
7.04729	0.00000	5555.80300
7.05113	0.00000	5555.80300
7.05497	0.00000	5536.13700
7.05880	0.00000	5536.13700
7.06265	0.00000	5536.13700
7.06650	0.00000	5536.13700
7.07033	0.00000	5536.13700
7.07417	0.00000	5536.13700
7.07801	0.00000	5536.13700
7.08185	0.00000	5560.26800
7.08569	0.00000	5560.26800
7.08953	0.00000	5560.26800
7.09337	0.00000	5560.26800
7.09720	0.00000	5560.26800
7.10105	0.00000	5560.26800
7.10488	0.00000	5560.26800
7.10872	0.00000	5558.03500
7.11257	0.00000	5558.03500
7.11642	0.00000	5558.03500
7.12025	0.00000	5558.03500
7.12408	0.00000	5558.03500
7.12793	0.00000	5558.03500
7.13176	0.00000	5558.03500
7.13560	0.00000	5558.03500
7.13943	0.00000	5558.03500
7.14327	0.00000	5558.03500
7.14711	0.00000	5558.03500
7.15094	0.00000	5558.03500
7.15478	0.00000	5558.03500
7.15862	0.00000	5558.03500
7.16246	0.00000	5553.57100
7.16631	0.00000	5553.57100
7.17014	0.00000	5553.57100
7.17398	0.00000	5553.57100
7.17782	0.00000	5553.57100
7.18165	0.00000	5553.57100
7.18549	0.00000	5553.57100
7.18933	0.00000	5549.10700
7.19318	0.00000	5549.10700
7.19701	0.00000	5549.10700
7.20085	0.00000	5549.10700
7.20469	0.00000	5549.10700
7.20853	0.00000	5549.10700
7.21237	0.00000	5549.10700
7.21621	0.00000	5555.80300
7.22006	0.00000	5555.80300
7.22390	0.00000	5555.80300
7.22773	0.00000	5555.80300
7.23156	0.00000	5555.80300
7.23539	0.00000	5555.80300
7.23923	0.00000	5555.80300
7.24306	0.00000	5551.33900
7.24690	0.00000	5551.33900
7.25072	0.00000	5551.33900
7.25455	0.00000	5551.33900
7.25839	0.00000	5551.33900
7.26223	0.00000	5551.33900
7.26607	0.00000	5551.33900
7.26991	0.00000	5551.33900
7.27374	0.00000	5558.03500
7.27757	0.00000	5558.03500
7.28141	0.00000	5558.03500
7.28525	0.00000	5558.03500
7.28909	0.00000	5558.03500
7.29292	0.00000	5558.03500
7.29676	0.00000	5558.03500
7.30060	0.00000	5555.80300
7.30444	0.00000	5555.80300
7.30828	0.00000	5555.80300
7.31211	0.00000	5555.80300
7.31596	0.00000	5555.80300
7.31980	0.00000	5555.80300
7.32364	0.00000	5555.80300
7.32748	0.00000	5549.10700
7.33133	0.00000	5549.10700
7.33516	0.00000	5549.10700
7.33900	0.00000	5549.10700
7.34284	0.00000	5549.10700
7.34668	0.00000	5549.10700
7.35053	0.00000	5549.10700
7.35437	0.00000	5546.87500
7.35821	0.00000	5546.87500
7.36205	0.00000	5546.87500
7.36590	0.00000	5546.87500
7.36975	0.00000	5546.87500
7.37360	0.00000	5546.87500
7.37744	0.00000	5546.87500
7.38128	0.00000	5555.80300
7.38512	0.00000	5555.80300
7.38896	0.00000	5555.80300
7.39279	0.00000	5555.80300
7.39663	0.00000	5555.80300
7.40047	0.00000	5555.80300
7.40433	0.00000	5555.80300
7.40817	0.00000	5549.10700
7.41200	0.00000	5549.10700
7.41583	0.00000	5549.10700
7.41967	0.00000	5549.10700
7.42350	0.00000	5549.10700
7.42734	0.00000	5549.10700
7.43117	0.00000	5549.10700
7.43502	0.00000	5553.57100
7.43885	0.00000	5553.57100
7.44269	0.00000	5553.57100
7.44653	0.00000	5553.57100
7.45037	0.00000	5553.57100
7.45421	0.00000	5553.57100
7.45804	0.00000	5553.57100
7.46188	0.00000	5558.03500
7.46573	0.00000	5558.03500
7.46957	0.00000	5558.03500
7.47341	0.00000	5558.03500
7.47725	0.00000	5558.03500
7.48109	0.00000	5558.03500
7.48494	0.00000	5558.03500
7.48877	0.00000	5575.65800
7.49260	0.00000	5575.65800
7.49644	0.00000	5575.65800
7.50030	0.00000	5575.65800
7.50415	0.00000	5575.65800
7.50801	0.00000	5575.65800
7.51186	0.00000	5575.65800
7.51571	0.00000	5575.65800
7.51956	0.00000	5549.10700
7.52342	0.00000	5549.10700
7.52726	0.00000	5549.10700
7.53109	0.00000	5549.10700
7.53493	0.00000	5549.10700
7.53878	0.00000	5549.10700
7.54261	0.00000	5549.10700
7.54644	0.00000	5553.57100
7.55028	0.00000	5553.57100
7.55411	0.00000	5553.57100
7.55795	0.00000	5553.57100
7.56181	0.00000	5553.57100
7.56567	0.00000	5553.57100
7.56952	0.00000	5553.57100
7.57336	0.00000	5551.33900
7.57721	0.00000	5551.33900
7.58105	0.00000	5551.33900
7.58488	0.00000	5551.33900
7.58872	0.00000	5551.33900
7.59256	0.00000	5551.33900
7.59640	0.00000	5551.33900
7.60023	0.00000	5551.33900
7.60408	0.00000	5551.33900
7.60792	0.00000	5551.33900
7.61176	0.00000	5551.33900
7.61560	0.00000	5551.33900
7.61943	0.00000	5551.33900
7.62326	0.00000	5551.33900
7.62711	0.00000	5555.80300
7.63095	0.00000	5555.80300
7.63480	0.00000	5555.80300
7.63864	0.00000	5555.80300
7.64249	0.00000	5555.80300
7.64633	0.00000	5555.80300
7.65016	0.00000	5555.80300
7.65401	0.00000	5549.10700
7.65785	0.00000	5549.10700
7.66168	0.00000	5549.10700
7.66552	0.00000	5549.10700
7.66937	0.00000	5549.10700
7.67320	0.00000	5549.10700
7.67704	0.00000	5549.10700
7.68088	0.00000	5558.03500
7.68473	0.00000	5558.03500
7.68856	0.00000	5558.03500
7.69241	0.00000	5558.03500
7.69624	0.00000	5558.03500
7.70009	0.00000	5558.03500
7.70393	0.00000	5558.03500
7.70777	0.00000	5555.80300
7.71161	0.00000	5555.80300
7.71545	0.00000	5555.80300
7.71929	0.00000	5555.80300
7.72312	0.00000	5555.80300
7.72696	0.00000	5555.80300
7.73081	0.00000	5555.80300
7.73465	0.00000	5555.80300
7.73851	0.00000	5555.80300
7.74234	0.00000	5555.80300
7.74618	0.00000	5555.80300
7.75001	0.00000	5555.80300
7.75384	0.00000	5555.80300
7.75769	0.00000	5555.80300
7.76153	0.00000	5555.80300
7.76536	0.00000	5553.57100
7.76921	0.00000	5553.57100
7.77305	0.00000	5553.57100
7.77690	0.00000	5553.57100
7.78074	0.00000	5553.57100
7.78458	0.00000	5553.57100
7.78841	0.00000	5553.57100
7.79225	0.00000	5558.03500
7.79609	0.00000	5558.03500
7.79992	0.00000	5558.03500
7.80376	0.00000	5558.03500
7.80761	0.00000	5558.03500
7.81145	0.00000	5558.03500
7.81529	0.00000	5558.03500
7.81913	0.00000	5553.57100
7.82298	0.00000	5553.57100
7.82682	0.00000	5553.57100
7.83065	0.00000	5553.57100
7.83449	0.00000	5553.57100
7.83834	0.00000	5553.57100
7.84217	0.00000	5553.57100
7.84601	0.00000	5555.80300
7.84985	0.00000	5555.80300
7.85369	0.00000	5555.80300
7.85754	0.00000	5555.80300
7.86139	0.00000	5555.80300
7.86522	0.00000	5555.80300
7.86906	0.00000	5555.80300
7.87290	0.00000	5533.91500
7.87673	0.00000	5533.91500
7.88058	0.00000	5533.91500
7.88442	0.00000	5533.91500
7.88826	0.00000	5533.91500
7.89209	0.00000	5533.91500
7.89592	0.00000	5533.91500
7.89976	0.00000	5553.57100
7.90360	0.00000	5553.57100
7.90745	0.00000	5553.57100
7.91128	0.00000	5553.57100
7.91512	0.00000	5553.57100
7.91896	0.00000	5553.57100
7.92281	0.00000	5553.57100
7.92665	0.00000	5553.57100
7.93048	0.00000	5553.57100
7.93432	0.00000	5553.57100
7.93815	0.00000	5553.57100
7.94198	0.00000	5553.57100
7.94582	0.00000	5553.57100
7.94966	0.00000	5553.57100
7.95349	0.00000	5553.57100
7.95735	0.00000	5553.57100
7.96118	0.00000	5553.57100
7.96502	0.00000	5553.57100
7.96885	0.00000	5553.57100
7.97268	0.00000	5553.57100
7.97652	0.00000	5553.57100
7.98036	0.00000	5553.57100
7.98419	0.00000	5553.57100
7.98802	0.00000	5553.57100
7.99186	0.00000	5553.57100
7.99570	0.00000	5553.57100
7.99954	0.00000	5553.57100
8.00337	0.00000	5553.57100
8.00721	0.00000	5553.57100
8.01105	0.00000	5549.10700
8.01489	0.00000	5549.10700
8.01872	0.00000	5549.10700
8.02255	0.00000	5549.10700
8.02639	0.00000	5549.10700
8.03024	0.00000	5549.10700
8.03408	0.00000	5549.10700
8.03791	0.00000	5575.65800
8.04174	0.00000	5575.65800
8.04559	0.00000	5575.65800
8.04944	0.00000	5575.65800
8.05327	0.00000	5575.65800
8.05711	0.00000	5575.65800
8.06097	0.00000	5575.65800
8.06480	0.00000	5549.10700
8.06865	0.00000	5549.10700
8.07249	0.00000	5549.10700
8.07634	0.00000	5549.10700
8.08017	0.00000	5549.10700
8.08402	0.00000	5549.10700
8.08786	0.00000	5549.10700
8.09169	0.00000	5549.10700
8.09553	0.00000	5549.10700
8.09937	0.00000	5549.10700
8.10321	0.00000	5549.10700
8.10705	0.00000	5549.10700
8.11088	0.00000	5549.10700
8.11472	0.00000	5549.10700
8.11855	0.00000	5546.87500
8.12241	0.00000	5546.87500
8.12625	0.00000	5546.87500
8.13010	0.00000	5546.87500
8.13394	0.00000	5546.87500
8.13779	0.00000	5546.87500
8.14163	0.00000	5546.87500
8.14546	0.00000	5546.87500
8.14930	0.00000	5546.87500
8.15314	0.00000	5546.87500
8.15698	0.00000	5546.87500
8.16082	0.00000	5546.87500
8.16465	0.00000	5546.87500
8.16850	0.00000	5546.87500
8.17233	0.00000	5544.64200
8.17618	0.00000	5544.64200
8.18001	0.00000	5544.64200
8.18386	0.00000	5544.64200
8.18769	0.00000	5544.64200
8.19154	0.00000	5544.64200
8.19538	0.00000	5544.64200
8.19923	0.00000	5549.10700
8.20310	0.00000	5549.10700
8.20693	0.00000	5549.10700
8.21077	0.00000	5549.10700
8.21461	0.00000	5549.10700
8.21846	0.00000	5549.10700
8.22230	0.00000	5549.10700
8.22614	0.00000	5575.65800
8.22998	0.00000	5575.65800
8.23382	0.00000	5575.65800
8.23765	0.00000	5575.65800
8.24149	0.00000	5575.65800
8.24532	0.00000	5575.65800
8.24916	0.00000	5575.65800
8.25299	0.00000	5575.65800
8.25682	0.00000	5549.10700
8.26066	0.00000	5549.10700
8.26451	0.00000	5549.10700
8.26834	0.00000	5549.10700
8.27217	0.00000	5549.10700
8.27602	0.00000	5549.10700
8.27986	0.00000	5549.10700
8.28371	0.00000	5553.57100
8.28755	0.00000	5553.57100
8.29139	0.00000	5553.57100
8.29522	0.00000	5553.57100
8.29905	0.00000	5553.57100
8.30289	0.00000	5553.57100
8.30672	0.00000	5553.57100
8.31055	0.00000	5571.17200
8.31439	0.00000	5571.17200
8.31823	0.00000	5571.17200
8.32206	0.00000	5571.17200
8.32590	0.00000	5571.17200
8.32974	0.00000	5571.17200
8.33358	0.00000	5571.17200
8.33742	0.00000	5546.87500
8.34125	0.00000	5546.87500
8.34509	0.00000	5546.87500
8.34893	0.00000	5546.87500
8.35277	0.00000	5546.87500
8.35662	0.00000	5546.87500
8.36045	0.00000	5546.87500
8.36428	0.00000	5549.10700
8.36812	0.00000	5549.10700
8.37195	0.00000	5549.10700
8.37578	0.00000	5549.10700
8.37963	0.00000	5549.10700
8.38346	0.00000	5549.10700
8.38730	0.00000	5549.10700
8.39113	0.00000	5549.10700
8.39497	0.00000	5549.10700
8.39880	0.00000	5549.10700
8.40263	0.00000	5549.10700
8.40647	0.00000	5549.10700
8.41030	0.00000	5549.10700
8.41413	0.00000	5549.10700
8.41798	0.00000	5551.33900
8.42182	0.00000	5551.33900
8.42566	0.00000	5551.33900
8.42949	0.00000	5551.33900
8.43333	0.00000	5551.33900
8.43717	0.00000	5551.33900
8.44101	0.00000	5551.33900
8.44484	0.00000	5551.33900
8.44869	0.00000	5551.33900
8.45253	0.00000	5551.33900
8.45638	0.00000	5551.33900
8.46021	0.00000	5551.33900
8.46405	0.00000	5551.33900
8.46789	0.00000	5551.33900
8.47172	0.00000	5577.90100
8.47557	0.00000	5577.90100
8.47941	0.00000	5577.90100
8.48325	0.00000	5577.90100
8.48709	0.00000	5577.90100
8.49092	0.00000	5577.90100
8.49476	0.00000	5577.90100
8.49860	0.00000	5577.90100
8.50243	0.00000	5551.33900
8.50628	0.00000	5551.33900
8.51012	0.00000	5551.33900
8.51396	0.00000	5551.33900
8.51780	0.00000	5551.33900
8.52169	0.00000	5551.33900
8.52555	0.00000	5551.33900
8.52940	0.00000	5571.17200
8.53324	0.00000	5571.17200
8.53708	0.00000	5571.17200
8.54092	0.00000	5571.17200
8.54476	0.00000	5571.17200
8.54859	0.00000	5571.17200
8.55243	0.00000	5571.17200
8.55628	0.00000	5575.65800
8.56013	0.00000	5575.65800
8.56397	0.00000	5575.65800
8.56782	0.00000	5575.65800
8.57167	0.00000	5575.65800
8.57550	0.00000	5575.65800
8.57934	0.00000	5575.65800
8.58318	0.00000	5549.10700
8.58703	0.00000	5549.10700
8.59086	0.00000	5549.10700
8.59470	0.00000	5549.10700
8.59854	0.00000	5549.10700
8.60239	0.00000	5549.10700
8.60622	0.00000	5549.10700
8.61007	0.00000	5546.87500
8.61391	0.00000	5546.87500
8.61775	0.00000	5546.87500
8.62159	0.00000	5546.87500
8.62543	0.00000	5546.87500
8.62927	0.00000	5546.87500
8.63313	0.00000	5546.87500
8.63698	0.00000	5546.87500
8.64083	0.00000	5546.87500
8.64468	0.00000	5546.87500
8.64852	0.00000	5546.87500
8.65235	0.00000	5546.87500
8.65618	0.00000	5546.87500
8.66003	0.00000	5546.87500
8.66388	0.00000	5549.10700
8.66774	0.00000	5549.10700
8.67158	0.00000	5549.10700
8.67542	0.00000	5549.10700
8.67926	0.00000	5549.10700
8.68310	0.00000	5549.10700
8.68694	0.00000	5549.10700
8.69077	0.00000	5540.17800
8.69461	0.00000	5540.17800
8.69845	0.00000	5540.17800
8.70230	0.00000	5540.17800
8.70614	0.00000	5540.17800
8.70999	0.00000	5540.17800
8.71384	0.00000	5540.17800
8.71768	0.00000	5549.10700
8.72153	0.00000	5549.10700
8.72538	0.00000	5549.10700
8.72921	0.00000	5549.10700
8.73306	0.00000	5549.10700
8.73689	0.00000	5549.10700
8.74073	0.00000	5549.10700
8.74457	0.00000	5577.90100
8.74841	0.00000	5577.90100
8.75226	0.00000	5577.90100
8.75610	0.00000	5577.90100
8.75993	0.00000	5577.90100
8.76377	0.00000	5577.90100
8.76761	0.00000	5577.90100
8.77146	0.00000	5577.90100
8.77529	0.00000	5546.87500
8.77912	0.00000	5546.87500
8.78295	0.00000	5546.87500
8.78678	0.00000	5546.87500
8.79063	0.00000	5546.87500
8.79446	0.00000	5546.87500
8.79831	0.00000	5546.87500
8.80215	0.00000	5549.10700
8.80599	0.00000	5549.10700
8.80982	0.00000	5549.10700
8.81366	0.00000	5549.10700
8.81750	0.00000	5549.10700
8.82134	0.00000	5549.10700
8.82518	0.00000	5549.10700
8.82903	0.00000	5551.33900
8.83286	0.00000	5551.33900
8.83671	0.00000	5551.33900
8.84054	0.00000	5551.33900
8.84438	0.00000	5551.33900
8.84821	0.00000	5551.33900
8.85205	0.00000	5551.33900
8.85590	0.00000	5551.33900
8.85975	0.00000	5551.33900
8.86359	0.00000	5551.33900
8.86743	0.00000	5551.33900
8.87127	0.00000	5551.33900
8.87511	0.00000	5551.33900
8.87894	0.00000	5551.33900
8.88279	0.00000	5553.57100
8.88663	0.00000	5553.57100
8.89047	0.00000	5553.57100
8.89430	0.00000	5553.57100
8.89815	0.00000	5553.57100
8.90199	0.00000	5553.57100
8.90584	0.00000	5553.57100
8.90967	0.00000	5553.57100
8.91351	0.00000	5553.57100
8.91735	0.00000	5553.57100
8.92118	0.00000	5553.57100
8.92502	0.00000	5553.57100
8.92885	0.00000	5553.57100
8.93269	0.00000	5553.57100
8.93653	0.00000	5546.87500
8.94037	0.00000	5546.87500
8.94420	0.00000	5546.87500
8.94803	0.00000	5546.87500
8.95187	0.00000	5546.87500
8.95570	0.00000	5546.87500
8.95954	0.00000	5546.87500
8.96338	0.00000	5555.80300
8.96721	0.00000	5555.80300
8.97105	0.00000	5555.80300
8.97489	0.00000	5555.80300
8.97871	0.00000	5555.80300
8.98255	0.00000	5555.80300
8.98639	0.00000	5555.80300
8.99023	0.00000	5553.57100
8.99405	0.00000	5553.57100
8.99788	0.00000	5553.57100
9.00172	0.00000	5553.57100
9.00555	0.00000	5553.57100
9.00938	0.00000	5553.57100
9.01322	0.00000	5553.57100
9.01705	0.00000	5553.57100
9.02088	0.00000	5558.03500
9.02471	0.00000	5558.03500
9.02855	0.00000	5558.03500
9.03239	0.00000	5558.03500
9.03622	0.00000	5558.03500
9.04005	0.00000	5558.03500
9.04389	0.00000	5558.03500
9.04773	0.00000	5553.57100
9.05156	0.00000	5553.57100
9.05540	0.00000	5553.57100
9.05924	0.00000	5553.57100
9.06307	0.00000	5553.57100
9.06691	0.00000	5553.57100
9.07072	0.00000	5553.57100
9.07455	0.00000	5555.80300
9.07839	0.00000	5555.80300
9.08223	0.00000	5555.80300
9.08607	0.00000	5555.80300
9.08991	0.00000	5555.80300
9.09375	0.00000	5555.80300
9.09759	0.00000	5555.80300
9.10143	0.00000	5553.57100
9.10527	0.00000	5553.57100
9.10911	0.00000	5553.57100
9.11295	0.00000	5553.57100
9.11679	0.00000	5553.57100
9.12062	0.00000	5553.57100
9.12447	0.00000	5553.57100
9.12831	0.00000	5553.57100
9.13215	0.00000	5553.57100
9.13598	0.00000	5553.57100
9.13983	0.00000	5553.57100
9.14367	0.00000	5553.57100
9.14751	0.00000	5553.57100
9.15134	0.00000	5553.57100
9.15519	0.00000	5551.33900
9.15903	0.00000	5551.33900
9.16287	0.00000	5551.33900
9.16670	0.00000	5551.33900
9.17055	0.00000	5551.33900
9.17438	0.00000	5551.33900
9.17823	0.00000	5551.33900
9.18206	0.00000	5553.57100
9.18591	0.00000	5553.57100
9.18975	0.00000	5553.57100
9.19359	0.00000	5553.57100
9.19743	0.00000	5553.57100
9.20128	0.00000	5553.57100
9.20512	0.00000	5553.57100
9.20895	0.00000	5553.57100
9.21280	0.00000	5553.57100
9.21664	0.00000	5553.57100
9.22048	0.00000	5553.57100
9.22431	0.00000	5553.57100
9.22814	0.00000	5553.57100
9.23197	0.00000	5553.57100
9.23581	0.00000	5558.03500
9.23966	0.00000	5558.03500
9.24349	0.00000	5558.03500
9.24733	0.00000	5558.03500
9.25117	0.00000	5558.03500
9.25502	0.00000	5558.03500
9.25886	0.00000	5558.03500
9.26270	0.00000	5558.03500
9.26654	0.00000	5558.03500
9.27039	0.00000	5558.03500
9.27422	0.00000	5558.03500
9.27805	0.00000	5558.03500
9.28189	0.00000	5558.03500
9.28574	0.00000	5558.03500
9.28957	0.00000	5558.03500
9.29341	0.00000	5553.57100
9.29724	0.00000	5553.57100
9.30108	0.00000	5553.57100
9.30491	0.00000	5553.57100
9.30874	0.00000	5553.57100
9.31257	0.00000	5553.57100
9.31640	0.00000	5553.57100
9.32024	0.00000	5533.91500
9.32407	0.00000	5533.91500
9.32791	0.00000	5533.91500
9.33175	0.00000	5533.91500
9.33558	0.00000	5533.91500
9.33942	0.00000	5533.91500
9.34325	0.00000	5533.91500
9.34709	0.00000	5555.80300
9.35093	0.00000	5555.80300
9.35476	0.00000	5555.80300
9.35860	0.00000	5555.80300
9.36246	0.00000	5555.80300
9.36629	0.00000	5555.80300
9.37013	0.00000	5555.80300
9.37398	0.00000	5553.57100
9.37781	0.00000	5553.57100
9.38165	0.00000	5553.57100
9.38548	0.00000	5553.57100
9.38932	0.00000	5553.57100
9.39316	0.00000	5553.57100
9.39699	0.00000	5553.57100
9.40083	0.00000	5529.47200
9.40467	0.00000	5529.47200
9.40850	0.00000	5529.47200
9.41235	0.00000	5529.47200
9.41618	0.00000	5529.47200
9.42002	0.00000	5529.47200
9.42386	0.00000	5529.47200
9.42769	0.00000	5555.80300
9.43153	0.00000	5555.80300
9.43537	0.00000	5555.80300
9.43921	0.00000	5555.80300
9.44305	0.00000	5555.80300
9.44689	0.00000	5555.80300
9.45072	0.00000	5555.80300
9.45455	0.00000	5553.57100
9.45838	0.00000	5553.57100
9.46222	0.00000	5553.57100
9.46606	0.00000	5553.57100
9.46990	0.00000	5553.57100
9.47374	0.00000	5553.57100
9.47758	0.00000	5553.57100
9.48141	0.00000	5553.57100
9.48525	0.00000	5560.26800
9.48908	0.00000	5560.26800
9.49291	0.00000	5560.26800
9.49675	0.00000	5560.26800
9.50059	0.00000	5560.26800
9.50443	0.00000	5560.26800
9.50826	0.00000	5560.26800
9.51210	0.00000	5555.80300
9.51594	0.00000	5555.80300
9.51977	0.00000	5555.80300
9.52363	0.00000	5555.80300
9.52747	0.00000	5555.80300
9.53132	0.00000	5555.80300
9.53515	0.00000	5555.80300
9.53900	0.00000	5555.80300
9.54284	0.00000	5555.80300
9.54668	0.00000	5555.80300
9.55053	0.00000	5555.80300
9.55437	0.00000	5555.80300
9.55820	0.00000	5555.80300
9.56204	0.00000	5555.80300
9.56589	0.00000	5558.03500
9.56972	0.00000	5558.03500
9.57356	0.00000	5558.03500
9.57741	0.00000	5558.03500
9.58124	0.00000	5558.03500
9.58508	0.00000	5558.03500
9.58892	0.00000	5558.03500
9.59276	0.00000	5549.10700
9.59660	0.00000	5549.10700
9.60044	0.00000	5549.10700
9.60427	0.00000	5549.10700
9.60812	0.00000	5549.10700
9.61196	0.00000	5549.10700
9.61579	0.00000	5549.10700
9.61963	0.00000	5553.57100
9.62347	0.00000	5553.57100
9.62730	0.00000	5553.57100
9.63114	0.00000	5553.57100
9.63498	0.00000	5553.57100
9.63882	0.00000	5553.57100
9.64265	0.00000	5553.57100
9.64649	0.00000	5553.57100
9.65033	0.00000	5553.57100
9.65417	0.00000	5553.57100
9.65801	0.00000	5553.57100
9.66185	0.00000	5553.57100
9.66569	0.00000	5553.57100
9.66953	0.00000	5553.57100
9.67337	0.00000	5553.57100
9.67724	0.00000	5553.57100
9.68108	0.00000	5553.57100
9.68492	0.00000	5553.57100
9.68876	0.00000	5553.57100
9.69260	0.00000	5553.57100
9.69644	0.00000	5553.57100
9.70026	0.00000	5549.10700
9.70409	0.00000	5549.10700
9.70793	0.00000	5549.10700
9.71177	0.00000	5549.10700
9.71561	0.00000	5549.10700
9.71946	0.00000	5549.10700
9.72329	0.00000	5549.10700
9.72714	0.00000	5549.10700
9.73097	0.00000	5558.03500
9.73482	0.00000	5558.03500
9.73866	0.00000	5558.03500
9.74249	0.00000	5558.03500
9.74633	0.00000	5558.03500
9.75018	0.00000	5558.03500
9.75402	0.00000	5558.03500
9.75786	0.00000	5546.87500
9.76169	0.00000	5546.87500
9.76554	0.00000	5546.87500
9.76938	0.00000	5546.87500
9.77321	0.00000	5546.87500
9.77705	0.00000	5546.87500
9.78090	0.00000	5546.87500
9.78475	0.00000	5575.65800
9.78858	0.00000	5575.65800
9.79241	0.00000	5575.65800
9.79626	0.00000	5575.65800
9.80010	0.00000	5575.65800
9.80394	0.00000	5575.65800
9.80777	0.00000	5575.65800
9.81163	0.00000	5551.33900
9.81547	0.00000	5551.33900
9.81931	0.00000	5551.33900
9.82315	0.00000	5551.33900
9.82699	0.00000	5551.33900
9.83084	0.00000	5551.33900
9.83467	0.00000	5551.33900
9.83852	0.00000	5549.10700
9.84235	0.00000	5549.10700
9.84619	0.00000	5549.10700
9.85003	0.00000	5549.10700
9.85387	0.00000	5549.10700
9.85770	0.00000	5549.10700
9.86154	0.00000	5549.10700
9.86538	0.00000	5549.10700
9.86922	0.00000	5549.10700
9.87305	0.00000	5549.10700
9.87689	0.00000	5549.10700
9.88075	0.00000	5549.10700
9.88459	0.00000	5549.10700
9.88843	0.00000	5549.10700
9.89226	0.00000	5553.57100
9.89611	0.00000	5553.57100
9.89995	0.00000	5553.57100
9.90379	0.00000	5553.57100
9.90763	0.00000	5553.57100
9.91147	0.00000	5553.57100
9.91531	0.00000	5553.57100
9.91915	0.00000	5573.41500
9.92302	0.00000	5573.41500
9.92686	0.00000	5573.41500
9.93069	0.00000	5573.41500
9.93453	0.00000	5573.41500
9.93837	0.00000	5573.41500
9.94222	0.00000	5573.41500
9.94607	0.00000	5575.65800
9.94991	0.00000	5575.65800
9.95376	0.00000	5575.65800
9.95759	0.00000	5575.65800
9.96144	0.00000	5575.65800
9.96527	0.00000	5575.65800
9.96911	0.00000	5575.65800
9.97295	0.00000	5575.65800
9.97679	0.00000	5540.17800
9.98062	0.00000	5540.17800
9.98446	0.00000	5540.17800
9.98831	0.00000	5540.17800
9.99215	0.00000	5540.17800
9.99599	0.00000	5540.17800
9.99982	0.00000	5540.17800
