Time (s)   Thrust (N)   RPM
0.00030	0.00000	5146.27700
0.00421	0.00000	5161.34500
0.00807	0.00000	5161.34500
0.01192	0.00000	5161.34500
0.01576	0.00000	5161.34500
0.01959	0.00000	5161.34500
0.02344	0.00000	5161.34500
0.02733	0.00000	5161.34500
0.03119	0.00000	5103.60900
0.03503	0.00000	5103.60900
0.03886	0.00000	5103.60900
0.04270	0.00000	5103.60900
0.04654	0.00000	5103.60900
0.05038	0.00000	5103.60900
0.05422	0.00000	5068.68100
0.05805	0.00000	5068.68100
0.06188	0.00000	5068.68100
0.06570	0.00000	5068.68100
0.06953	0.00000	5068.68100
0.07337	0.00000	5068.68100
0.07720	0.00000	5015.62500
0.08103	0.00000	5015.62500
0.08486	0.00000	5015.62500
0.08871	0.00000	5015.62500
0.09255	0.00000	5015.62500
0.09639	0.00000	5015.62500
0.10023	0.00000	4961.37600
0.10406	0.00000	4961.37600
0.10789	0.00000	4961.37600
0.11171	0.00000	4961.37600
0.11554	0.00000	4961.37600
0.11938	0.00000	4961.37600
0.12320	0.00000	4907.30900
0.12703	0.00000	4907.30900
0.13086	0.00000	4907.30900
0.13469	0.00000	4907.30900
0.13852	0.00000	4907.30900
0.14235	0.00000	4907.30900
0.14619	0.00000	4871.27100
0.15001	0.00000	4871.27100
0.15385	0.00000	4871.27100
0.15768	0.00000	4871.27100
0.16151	0.00000	4871.27100
0.16535	0.00000	4871.27100
0.16918	0.00000	4845.53500
0.17301	0.00000	4845.53500
0.17684	0.00000	4845.53500
0.18066	0.00000	4845.53500
0.18449	0.00000	4845.53500
0.18832	0.00000	4845.53500
0.19217	0.00000	4838.36200
0.19602	0.00000	4838.36200
0.19986	0.00000	4838.36200
0.20370	0.00000	4838.36200
0.20753	0.00000	4838.36200
0.21137	0.00000	4838.36200
0.21522	0.00000	4800.64700
0.21905	0.00000	4800.64700
0.22290	0.00000	4800.64700
0.22674	0.00000	4800.64700
0.23058	0.00000	4800.64700
0.23441	0.00000	4800.64700
0.23825	0.00000	4801.30100
0.24209	0.00000	4801.30100
0.24592	0.00000	4801.30100
0.24971	0.00000	4801.30100
0.25353	0.00000	4801.30100
0.25737	0.00000	4813.59600
0.26119	0.00000	4813.59600
0.26503	0.00000	4813.59600
0.26886	0.00000	4813.59600
0.27269	0.00000	4813.59600
0.27653	0.00000	4813.59600
0.28036	0.00000	4788.92500
0.28420	0.00000	4788.92500
0.28803	0.00000	4788.92500
0.29186	0.00000	4788.92500
0.29571	0.00000	4788.92500
0.29956	0.00000	4788.92500
0.30340	0.00000	4780.16000
0.30724	0.00000	4780.16000
0.31106	0.00000	4780.16000
0.31490	0.00000	4780.16000
0.31873	0.00000	4780.16000
0.32256	0.00000	4780.16000
0.32640	0.00000	4772.47800
0.33023	0.00000	4772.47800
0.33407	0.00000	4772.47800
0.33790	0.00000	4772.47800
0.34173	0.00000	4772.47800
0.34553	0.00000	4772.47800
0.34937	0.00000	4739.28000
0.35320	0.00000	4739.28000
0.35703	0.00000	4739.28000
0.36086	0.00000	4739.28000
0.36470	0.00000	4739.28000
0.36853	0.00000	4739.28000
0.37237	0.00000	4756.03100
0.37619	0.00000	4756.03100
0.38003	0.00000	4756.03100
0.38386	0.00000	4756.03100
0.38769	0.00000	4756.03100
0.39154	0.00000	4742.64700
0.39539	0.00000	4742.64700
0.39923	0.00000	4742.64700
0.40307	0.00000	4742.64700
0.40690	0.00000	4742.64700
0.41073	0.00000	4742.64700
0.41457	0.00000	4745.40400
0.41840	0.00000	4745.40400
0.42225	0.00000	4745.40400
0.42608	0.00000	4745.40400
0.42991	0.00000	4745.40400
0.43374	0.00000	4745.40400
0.43758	0.00000	4767.46300
0.44142	0.00000	4767.46300
0.44525	0.00000	4767.46300
0.44908	0.00000	4767.46300
0.45291	0.00000	4767.46300
0.45675	0.00000	4767.46300
0.46059	0.00000	4767.46300
0.46442	0.00000	4767.46300
0.46826	0.00000	4767.46300
0.47210	0.00000	4767.46300
0.47593	0.00000	4767.46300
0.47976	0.00000	4767.46300
0.48359	0.00000	4734.10000
0.48742	0.00000	4734.10000
0.49125	0.00000	4734.10000
0.49510	0.00000	4734.10000
0.49893	0.00000	4734.10000
0.50277	0.00000	4728.86000
0.50660	0.00000	4728.86000
0.51045	0.00000	4728.86000
0.51429	0.00000	4728.86000
0.51812	0.00000	4728.86000
0.52200	0.00000	4728.86000
0.52584	0.00000	4750.91900
0.52968	0.00000	4750.91900
0.53353	0.00000	4750.91900
0.53738	0.00000	4750.91900
0.54121	0.00000	4750.91900
0.54504	0.00000	4750.91900
0.54887	0.00000	4731.61700
0.55271	0.00000	4731.61700
0.55654	0.00000	4731.61700
0.56037	0.00000	4731.61700
0.56420	0.00000	4731.61700
0.56803	0.00000	4731.61700
0.57186	0.00000	4737.13200
0.57569	0.00000	4737.13200
0.57953	0.00000	4737.13200
0.58337	0.00000	4737.13200
0.58720	0.00000	4737.13200
0.59103	0.00000	4720.58800
0.59485	0.00000	4720.58800
0.59868	0.00000	4720.58800
0.60252	0.00000	4720.58800
0.60635	0.00000	4720.58800
0.61019	0.00000	4720.58800
0.61403	0.00000	4742.97300
0.61788	0.00000	4742.97300
0.62171	0.00000	4742.97300
0.62553	0.00000	4742.97300
0.62937	0.00000	4742.97300
0.63321	0.00000	4742.97300
0.63704	0.00000	4734.37500
0.64088	0.00000	4734.37500
0.64472	0.00000	4734.37500
0.64855	0.00000	4734.37500
0.65238	0.00000	4734.37500
0.65622	0.00000	4734.37500
0.66006	0.00000	4737.13200
0.66390	0.00000	4737.13200
0.66774	0.00000	4737.13200
0.67157	0.00000	4737.13200
0.67541	0.00000	4737.13200
0.67924	0.00000	4737.13200
0.68307	0.00000	4728.86000
0.68690	0.00000	4728.86000
0.69073	0.00000	4728.86000
0.69456	0.00000	4728.86000
0.69839	0.00000	4728.86000
0.70223	0.00000	4748.88400
0.70607	0.00000	4748.88400
0.70991	0.00000	4748.88400
0.71375	0.00000	4748.88400
0.71753	0.00000	4748.88400
0.72137	0.00000	4748.88400
0.72519	0.00000	4739.88900
0.72902	0.00000	4739.88900
0.73286	0.00000	4739.88900
0.73669	0.00000	4739.88900
0.74052	0.00000	4739.88900
0.74435	0.00000	4739.88900
0.74818	0.00000	4723.34500
0.75203	0.00000	4723.34500
0.75587	0.00000	4723.34500
0.75970	0.00000	4723.34500
0.76354	0.00000	4723.34500
0.76737	0.00000	4723.34500
0.77121	0.00000	4726.10300
0.77504	0.00000	4726.10300
0.77887	0.00000	4726.10300
0.78271	0.00000	4726.10300
0.78653	0.00000	4726.10300
0.79037	0.00000	4720.78400
0.79420	0.00000	4720.78400
0.79804	0.00000	4720.78400
0.80186	0.00000	4720.78400
0.80570	0.00000	4720.78400
0.80953	0.00000	4720.78400
0.81338	0.00000	4745.74700
0.81721	0.00000	4745.74700
0.82105	0.00000	4745.74700
0.82488	0.00000	4745.74700
0.82873	0.00000	4745.74700
0.83256	0.00000	4745.74700
0.83640	0.00000	4737.13200
0.84023	0.00000	4737.13200
0.84406	0.00000	4737.13200
0.84789	0.00000	4737.13200
0.85172	0.00000	4737.13200
0.85556	0.00000	4737.13200
0.85940	0.00000	4731.61700
0.86323	0.00000	4731.61700
0.86706	0.00000	4731.61700
0.87090	0.00000	4731.61700
0.87473	0.00000	4731.61700
0.87857	0.00000	4731.61700
0.88240	0.00000	4731.61700
0.88623	0.00000	4731.61700
0.89008	0.00000	4731.61700
0.89391	0.00000	4731.61700
0.89776	0.00000	4731.61700
0.90160	0.00000	4740.19900
0.90544	0.00000	4740.19900
0.90927	0.00000	4740.19900
0.91313	0.00000	4740.19900
0.91696	0.00000	4740.19900
0.92079	0.00000	4740.19900
0.92462	0.00000	4754.06800
0.92846	0.00000	4754.06800
0.93230	0.00000	4754.06800
0.93615	0.00000	4754.06800
0.93998	0.00000	4754.06800
0.94383	0.00000	4754.06800
0.94767	0.00000	4742.64700
0.95150	0.00000	4742.64700
0.95533	0.00000	4742.64700
0.95917	0.00000	4742.64700
0.96301	0.00000	4742.64700
0.96685	0.00000	4742.64700
0.97068	0.00000	4737.13200
0.97452	0.00000	4737.13200
0.97835	0.00000	4737.13200
0.98218	0.00000	4737.13200
0.98602	0.00000	4737.13200
0.98986	0.00000	4742.97300
0.99370	0.00000	4742.97300
0.99753	0.00000	4742.97300
1.00136	0.00000	4742.97300
1.00520	0.00000	4742.97300
1.00903	0.00000	4742.97300
1.01288	0.00000	4717.83100
1.01671	0.00000	4717.83100
1.02055	0.00000	4717.83100
1.02438	0.00000	4717.83100
1.02822	0.00000	4717.83100
1.03204	0.00000	4717.83100
1.03588	0.00000	4728.86000
1.03971	0.00000	4728.86000
1.04355	0.00000	4728.86000
1.04739	0.00000	4728.86000
1.05122	0.00000	4728.86000
1.05506	0.00000	4728.86000
1.05889	0.00000	4728.86000
1.06272	0.00000	4728.86000
1.06655	0.00000	4728.86000
1.07038	0.00000	4728.86000
1.07422	0.00000	4728.86000
1.07805	0.00000	4728.86000
1.08187	0.00000	4720.58800
1.08571	0.00000	4720.58800
1.08953	0.00000	4720.58800
1.09337	0.00000	4720.58800
1.09720	0.00000	4720.58800
1.10104	0.00000	4737.42600
1.10488	0.00000	4737.42600
1.10870	0.00000	4737.42600
1.11255	0.00000	4737.42600
1.11640	0.00000	4737.42600
1.12022	0.00000	4737.42600
1.12406	0.00000	4728.86000
1.12790	0.00000	4728.86000
1.13173	0.00000	4728.86000
1.13556	0.00000	4728.86000
1.13939	0.00000	4728.86000
1.14323	0.00000	4728.86000
1.14707	0.00000	4728.86000
1.15090	0.00000	4728.86000
1.15473	0.00000	4728.86000
1.15858	0.00000	4728.86000
1.16242	0.00000	4728.86000
1.16625	0.00000	4728.86000
1.17008	0.00000	4728.86000
1.17392	0.00000	4728.86000
1.17775	0.00000	4728.86000
1.18153	0.00000	4728.86000
1.18536	0.00000	4728.86000
1.18919	0.00000	4734.65200
1.19302	0.00000	4734.65200
1.19684	0.00000	4734.65200
1.20068	0.00000	4734.65200
1.20452	0.00000	4734.65200
1.20836	0.00000	4734.65200
1.21219	0.00000	4728.86000
1.21602	0.00000	4728.86000
1.21986	0.00000	4728.86000
1.22369	0.00000	4728.86000
1.22753	0.00000	4728.86000
1.23136	0.00000	4728.86000
1.23520	0.00000	4734.37500
1.23903	0.00000	4734.37500
1.24287	0.00000	4734.37500
1.24670	0.00000	4734.37500
1.25053	0.00000	4734.37500
1.25436	0.00000	4734.37500
1.25820	0.00000	4734.37500
1.26204	0.00000	4734.37500
1.26589	0.00000	4734.37500
1.26971	0.00000	4734.37500
1.27353	0.00000	4734.37500
1.27738	0.00000	4734.37500
1.28120	0.00000	4745.74700
1.28504	0.00000	4745.74700
1.28886	0.00000	4745.74700
1.29271	0.00000	4745.74700
1.29654	0.00000	4745.74700
1.30038	0.00000	4740.19900
1.30423	0.00000	4740.19900
1.30806	0.00000	4740.19900
1.31189	0.00000	4740.19900
1.31572	0.00000	4740.19900
1.31956	0.00000	4740.19900
1.32340	0.00000	4737.13200
1.32722	0.00000	4737.13200
1.33106	0.00000	4737.13200
1.33488	0.00000	4737.13200
1.33872	0.00000	4737.13200
1.34256	0.00000	4737.13200
1.34640	0.00000	4739.88900
1.35023	0.00000	4739.88900
1.35408	0.00000	4739.88900
1.35792	0.00000	4739.88900
1.36175	0.00000	4739.88900
1.36558	0.00000	4739.88900
1.36941	0.00000	4739.88900
1.37324	0.00000	4739.88900
1.37707	0.00000	4739.88900
1.38090	0.00000	4739.88900
1.38474	0.00000	4739.88900
1.38857	0.00000	4740.19900
1.39242	0.00000	4740.19900
1.39625	0.00000	4740.19900
1.40009	0.00000	4740.19900
1.40392	0.00000	4740.19900
1.40775	0.00000	4740.19900
1.41159	0.00000	4742.97300
1.41543	0.00000	4742.97300
1.41926	0.00000	4742.97300
1.42311	0.00000	4742.97300
1.42694	0.00000	4742.97300
1.43079	0.00000	4742.97300
1.43461	0.00000	4745.40400
1.43846	0.00000	4745.40400
1.44229	0.00000	4745.40400
1.44612	0.00000	4745.40400
1.44996	0.00000	4745.40400
1.45380	0.00000	4745.40400
1.45763	0.00000	4737.13200
1.46146	0.00000	4737.13200
1.46529	0.00000	4737.13200
1.46911	0.00000	4737.13200
1.47294	0.00000	4737.13200
1.47677	0.00000	4737.13200
1.48060	0.00000	4701.28600
1.48444	0.00000	4701.28600
1.48827	0.00000	4701.28600
1.49210	0.00000	4701.28600
1.49594	0.00000	4701.28600
1.49978	0.00000	4731.87800
1.50363	0.00000	4731.87800
1.50746	0.00000	4731.87800
1.51130	0.00000	4731.87800
1.51513	0.00000	4731.87800
1.51899	0.00000	4731.87800
1.52285	0.00000	4734.37500
1.52670	0.00000	4734.37500
1.53053	0.00000	4734.37500
1.53437	0.00000	4734.37500
1.53821	0.00000	4734.37500
1.54204	0.00000	4734.37500
1.54588	0.00000	4728.86000
1.54971	0.00000	4728.86000
1.55353	0.00000	4728.86000
1.55737	0.00000	4728.86000
1.56121	0.00000	4728.86000
1.56505	0.00000	4728.86000
1.56888	0.00000	4726.10300
1.57271	0.00000	4726.10300
1.57655	0.00000	4726.10300
1.58039	0.00000	4726.10300
1.58422	0.00000	4726.10300
1.58805	0.00000	4734.65200
1.59191	0.00000	4734.65200
1.59574	0.00000	4734.65200
1.59957	0.00000	4734.65200
1.60341	0.00000	4734.65200
1.60725	0.00000	4734.65200
1.61108	0.00000	4734.37500
1.61492	0.00000	4734.37500
1.61875	0.00000	4734.37500
1.62259	0.00000	4734.37500
1.62641	0.00000	4734.37500
1.63025	0.00000	4734.37500
1.63408	0.00000	4737.13200
1.63792	0.00000	4737.13200
1.64174	0.00000	4737.13200
1.64558	0.00000	4737.13200
1.64942	0.00000	4737.13200
1.65325	0.00000	4737.13200
1.65708	0.00000	4731.61700
1.66091	0.00000	4731.61700
1.66474	0.00000	4731.61700
1.66859	0.00000	4731.61700
1.67243	0.00000	4731.61700
1.67626	0.00000	4731.87800
1.68008	0.00000	4731.87800
1.68394	0.00000	4731.87800
1.68777	0.00000	4731.87800
1.69160	0.00000	4731.87800
1.69543	0.00000	4731.87800
1.69926	0.00000	4729.10500
1.70310	0.00000	4729.10500
1.70694	0.00000	4729.10500
1.71078	0.00000	4729.10500
1.71461	0.00000	4729.10500
1.71845	0.00000	4729.10500
1.72228	0.00000	4742.64700
1.72612	0.00000	4742.64700
1.72995	0.00000	4742.64700
1.73378	0.00000	4742.64700
1.73761	0.00000	4742.64700
1.74145	0.00000	4742.64700
1.74528	0.00000	4748.52000
1.74911	0.00000	4748.52000
1.75295	0.00000	4748.52000
1.75679	0.00000	4748.52000
1.76064	0.00000	4748.52000
1.76447	0.00000	4748.52000
1.76830	0.00000	4737.13200
1.77213	0.00000	4737.13200
1.77596	0.00000	4737.13200
1.77980	0.00000	4737.13200
1.78364	0.00000	4737.13200
1.78748	0.00000	4737.42600
1.79133	0.00000	4737.42600
1.79516	0.00000	4737.42600
1.79899	0.00000	4737.42600
1.80282	0.00000	4737.42600
1.80665	0.00000	4737.42600
1.81048	0.00000	4726.10300
1.81431	0.00000	4726.10300
1.81814	0.00000	4726.10300
1.82198	0.00000	4726.10300
1.82582	0.00000	4726.10300
1.82967	0.00000	4726.10300
1.83350	0.00000	4745.40400
1.83733	0.00000	4745.40400
1.84116	0.00000	4745.40400
1.84501	0.00000	4745.40400
1.84885	0.00000	4745.40400
1.85268	0.00000	4745.40400
1.85652	0.00000	4726.10300
1.86036	0.00000	4726.10300
1.86421	0.00000	4726.10300
1.86803	0.00000	4726.10300
1.87187	0.00000	4726.10300
1.87570	0.00000	4734.65200
1.87955	0.00000	4734.65200
1.88338	0.00000	4734.65200
1.88721	0.00000	4734.65200
1.89104	0.00000	4734.65200
1.89488	0.00000	4734.65200
1.89872	0.00000	4748.52000
1.90255	0.00000	4748.52000
1.90639	0.00000	4748.52000
1.91023	0.00000	4748.52000
1.91406	0.00000	4748.52000
1.91789	0.00000	4748.52000
1.92173	0.00000	4728.86000
1.92553	0.00000	4728.86000
1.92936	0.00000	4728.86000
1.93319	0.00000	4728.86000
1.93702	0.00000	4728.86000
1.94085	0.00000	4728.86000
1.94468	0.00000	4731.61700
1.94851	0.00000	4731.61700
1.95234	0.00000	4731.61700
1.95618	0.00000	4731.61700
1.96001	0.00000	4731.61700
1.96385	0.00000	4731.61700
1.96770	0.00000	4726.10300
1.97153	0.00000	4726.10300
1.97537	0.00000	4726.10300
1.97920	0.00000	4726.10300
1.98303	0.00000	4726.10300
1.98686	0.00000	4734.65200
1.99070	0.00000	4734.65200
1.99454	0.00000	4734.65200
1.99837	0.00000	4734.65200
2.00220	0.00000	4734.65200
2.00603	0.00000	4734.65200
2.00986	0.00000	4731.61700
2.01369	0.00000	4731.61700
2.01753	0.00000	4731.61700
2.02136	0.00000	4731.61700
2.02519	0.00000	4731.61700
2.02903	0.00000	4731.61700
2.03286	0.00000	4720.58800
2.03669	0.00000	4720.58800
2.04052	0.00000	4720.58800
2.04435	0.00000	4720.58800
2.04818	0.00000	4720.58800
2.05202	0.00000	4720.58800
2.05585	0.00000	4723.34500
2.05968	0.00000	4723.34500
2.06351	0.00000	4723.34500
2.06735	0.00000	4723.34500
2.07117	0.00000	4723.34500
2.07500	0.00000	4731.87800
2.07882	0.00000	4731.87800
2.08266	0.00000	4731.87800
2.08649	0.00000	4731.87800
2.09032	0.00000	4731.87800
2.09415	0.00000	4731.87800
2.09798	0.00000	4740.19900
2.10182	0.00000	4740.19900
2.10566	0.00000	4740.19900
2.10948	0.00000	4740.19900
2.11333	0.00000	4740.19900
2.11715	0.00000	4740.19900
2.12099	0.00000	4723.34500
2.12481	0.00000	4723.34500
2.12865	0.00000	4723.34500
2.13249	0.00000	4723.34500
2.13632	0.00000	4723.34500
2.14016	0.00000	4723.34500
2.14400	0.00000	4731.61700
2.14782	0.00000	4731.61700
2.15166	0.00000	4731.61700
2.15550	0.00000	4731.61700
2.15933	0.00000	4731.61700
2.16317	0.00000	4731.61700
2.16699	0.00000	4742.97300
2.17081	0.00000	4742.97300
2.17464	0.00000	4742.97300
2.17848	0.00000	4742.97300
2.18231	0.00000	4742.97300
2.18614	0.00000	4723.55700
2.18999	0.00000	4723.55700
2.19382	0.00000	4723.55700
2.19765	0.00000	4723.55700
2.20149	0.00000	4723.55700
2.20533	0.00000	4723.55700
2.20915	0.00000	4754.06800
2.21299	0.00000	4754.06800
2.21682	0.00000	4754.06800
2.22065	0.00000	4754.06800
2.22450	0.00000	4754.06800
2.22834	0.00000	4754.06800
2.23217	0.00000	4748.52000
2.23601	0.00000	4748.52000
2.23984	0.00000	4748.52000
2.24367	0.00000	4748.52000
2.24750	0.00000	4748.52000
2.25133	0.00000	4748.52000
2.25517	0.00000	4726.10300
2.25899	0.00000	4726.10300
2.26283	0.00000	4726.10300
2.26667	0.00000	4726.10300
2.27051	0.00000	4726.10300
2.27433	0.00000	4723.55700
2.27817	0.00000	4723.55700
2.28201	0.00000	4723.55700
2.28585	0.00000	4723.55700
2.28968	0.00000	4723.55700
2.29352	0.00000	4723.55700
2.29736	0.00000	4709.55900
2.30119	0.00000	4709.55900
2.30503	0.00000	4709.55900
2.30886	0.00000	4709.55900
2.31271	0.00000	4709.55900
2.31654	0.00000	4709.55900
2.32037	0.00000	4720.58800
2.32420	0.00000	4720.58800
2.32804	0.00000	4720.58800
2.33187	0.00000	4720.58800
2.33570	0.00000	4720.58800
2.33954	0.00000	4720.58800
2.34338	0.00000	4715.07300
2.34722	0.00000	4715.07300
2.35105	0.00000	4715.07300
2.35488	0.00000	4715.07300
2.35872	0.00000	4715.07300
2.36255	0.00000	4726.33100
2.36637	0.00000	4726.33100
2.37019	0.00000	4726.33100
2.37403	0.00000	4726.33100
2.37786	0.00000	4726.33100
2.38170	0.00000	4726.33100
2.38553	0.00000	4726.33100
2.38936	0.00000	4726.33100
2.39318	0.00000	4726.33100
2.39701	0.00000	4726.33100
2.40084	0.00000	4726.33100
2.40468	0.00000	4726.33100
2.40851	0.00000	4728.86000
2.41235	0.00000	4728.86000
2.41618	0.00000	4728.86000
2.42001	0.00000	4728.86000
2.42385	0.00000	4728.86000
2.42768	0.00000	4728.86000
2.43151	0.00000	4728.86000
2.43535	0.00000	4728.86000
2.43918	0.00000	4728.86000
2.44301	0.00000	4728.86000
2.44684	0.00000	4728.86000
2.45067	0.00000	4728.86000
2.45449	0.00000	4720.58800
2.45833	0.00000	4720.58800
2.46216	0.00000	4720.58800
2.46598	0.00000	4720.58800
2.46982	0.00000	4720.58800
2.47365	0.00000	4720.78400
2.47748	0.00000	4720.78400
2.48132	0.00000	4720.78400
2.48516	0.00000	4720.78400
2.48898	0.00000	4720.78400
2.49281	0.00000	4720.78400
2.49664	0.00000	4717.83100
2.50047	0.00000	4717.83100
2.50432	0.00000	4717.83100
2.50816	0.00000	4717.83100
2.51200	0.00000	4717.83100
2.51585	0.00000	4717.83100
2.51972	0.00000	4731.61700
2.52357	0.00000	4731.61700
2.52742	0.00000	4731.61700
2.53125	0.00000	4731.61700
2.53509	0.00000	4731.61700
2.53893	0.00000	4731.61700
2.54277	0.00000	4720.58800
2.54660	0.00000	4720.58800
2.55044	0.00000	4720.58800
2.55427	0.00000	4720.58800
2.55810	0.00000	4720.58800
2.56194	0.00000	4746.09400
2.56579	0.00000	4746.09400
2.56962	0.00000	4746.09400
2.57346	0.00000	4746.09400
2.57729	0.00000	4746.09400
2.58113	0.00000	4746.09400
2.58497	0.00000	4717.83100
2.58881	0.00000	4717.83100
2.59264	0.00000	4717.83100
2.59647	0.00000	4717.83100
2.60031	0.00000	4717.83100
2.60413	0.00000	4717.83100
2.60797	0.00000	4728.86000
2.61181	0.00000	4728.86000
2.61564	0.00000	4728.86000
2.61947	0.00000	4728.86000
2.62332	0.00000	4728.86000
2.62715	0.00000	4728.86000
2.63098	0.00000	4731.61700
2.63481	0.00000	4731.61700
2.63867	0.00000	4731.61700
2.64251	0.00000	4731.61700
2.64634	0.00000	4731.61700
2.65017	0.00000	4726.33100
2.65399	0.00000	4726.33100
2.65783	0.00000	4726.33100
2.66167	0.00000	4726.33100
2.66550	0.00000	4726.33100
2.66934	0.00000	4726.33100
2.67319	0.00000	4737.42600
2.67702	0.00000	4737.42600
2.68085	0.00000	4737.42600
2.68468	0.00000	4737.42600
2.68852	0.00000	4737.42600
2.69235	0.00000	4737.42600
2.69617	0.00000	4728.86000
2.70002	0.00000	4728.86000
2.70385	0.00000	4728.86000
2.70768	0.00000	4728.86000
2.71151	0.00000	4728.86000
2.71534	0.00000	4728.86000
2.71918	0.00000	4715.07300
2.72302	0.00000	4715.07300
2.72686	0.00000	4715.07300
2.73069	0.00000	4715.07300
2.73453	0.00000	4715.07300
2.73836	0.00000	4715.07300
2.74220	0.00000	4723.34500
2.74603	0.00000	4723.34500
2.74986	0.00000	4723.34500
2.75369	0.00000	4723.34500
2.75752	0.00000	4723.34500
2.76135	0.00000	4720.78400
2.76520	0.00000	4720.78400
2.76903	0.00000	4720.78400
2.77287	0.00000	4720.78400
2.77670	0.00000	4720.78400
2.78053	0.00000	4720.78400
2.78437	0.00000	4739.88900
2.78821	0.00000	4739.88900
2.79204	0.00000	4739.88900
2.79587	0.00000	4739.88900
2.79971	0.00000	4739.88900
2.80355	0.00000	4739.88900
2.80738	0.00000	4745.74700
2.81122	0.00000	4745.74700
2.81505	0.00000	4745.74700
2.81890	0.00000	4745.74700
2.82272	0.00000	4745.74700
2.82655	0.00000	4745.74700
2.83038	0.00000	4728.86000
2.83422	0.00000	4728.86000
2.83806	0.00000	4728.86000
2.84189	0.00000	4728.86000
2.84574	0.00000	4728.86000
2.84953	0.00000	4746.09400
2.85337	0.00000	4746.09400
2.85720	0.00000	4746.09400
2.86104	0.00000	4746.09400
2.86487	0.00000	4746.09400
2.86869	0.00000	4746.09400
2.87253	0.00000	4723.34500
2.87637	0.00000	4723.34500
2.88020	0.00000	4723.34500
2.88403	0.00000	4723.34500
2.88786	0.00000	4723.34500
2.89169	0.00000	4723.34500
2.89552	0.00000	4726.10300
2.89935	0.00000	4726.10300
2.90319	0.00000	4726.10300
2.90702	0.00000	4726.10300
2.91087	0.00000	4726.10300
2.91470	0.00000	4726.10300
2.91854	0.00000	4720.58800
2.92237	0.00000	4720.58800
2.92621	0.00000	4720.58800
2.93004	0.00000	4720.58800
2.93388	0.00000	4720.58800
2.93772	0.00000	4723.55700
2.94153	0.00000	4723.55700
2.94536	0.00000	4723.55700
2.94919	0.00000	4723.55700
2.95303	0.00000	4723.55700
2.95686	0.00000	4723.55700
2.96070	0.00000	4751.67400
2.96452	0.00000	4751.67400
2.96835	0.00000	4751.67400
2.97218	0.00000	4751.67400
2.97602	0.00000	4751.67400
2.97985	0.00000	4751.67400
2.98368	0.00000	4717.83100
2.98751	0.00000	4717.83100
2.99135	0.00000	4717.83100
2.99518	0.00000	4717.83100
2.99901	0.00000	4717.83100
3.00284	0.00000	4717.83100
3.00668	0.00000	4717.83100
3.01051	0.00000	4717.83100
3.01434	0.00000	4717.83100
3.01817	0.00000	4717.83100
3.02201	0.00000	4717.83100
3.02585	0.00000	4717.83100
3.02968	0.00000	4728.86000
3.03352	0.00000	4728.86000
3.03736	0.00000	4728.86000
3.04119	0.00000	4728.86000
3.04502	0.00000	4728.86000
3.04885	0.00000	4720.78400
3.05269	0.00000	4720.78400
3.05651	0.00000	4720.78400
3.06035	0.00000	4720.78400
3.06419	0.00000	4720.78400
3.06802	0.00000	4720.78400
3.07185	0.00000	4715.07300
3.07569	0.00000	4715.07300
3.07952	0.00000	4715.07300
3.08336	0.00000	4715.07300
3.08718	0.00000	4715.07300
3.09102	0.00000	4715.07300
3.09486	0.00000	4728.86000
3.09869	0.00000	4728.86000
3.10252	0.00000	4728.86000
3.10637	0.00000	4728.86000
3.11020	0.00000	4728.86000
3.11404	0.00000	4728.86000
3.11788	0.00000	4739.88900
3.12171	0.00000	4739.88900
3.12553	0.00000	4739.88900
3.12937	0.00000	4739.88900
3.13320	0.00000	4739.88900
3.13703	0.00000	4748.88400
3.14086	0.00000	4748.88400
3.14469	0.00000	4748.88400
3.14852	0.00000	4748.88400
3.15236	0.00000	4748.88400
3.15619	0.00000	4748.88400
3.16002	0.00000	4734.65200
3.16385	0.00000	4734.65200
3.16769	0.00000	4734.65200
3.17151	0.00000	4734.65200
3.17535	0.00000	4734.65200
3.17919	0.00000	4734.65200
3.18303	0.00000	4759.61500
3.18686	0.00000	4759.61500
3.19069	0.00000	4759.61500
3.19452	0.00000	4759.61500
3.19835	0.00000	4759.61500
3.20219	0.00000	4759.61500
3.20602	0.00000	4731.61700
3.20986	0.00000	4731.61700
3.21370	0.00000	4731.61700
3.21753	0.00000	4731.61700
3.22137	0.00000	4731.61700
3.22520	0.00000	4731.61700
3.22902	0.00000	4740.19900
3.23286	0.00000	4740.19900
3.23669	0.00000	4740.19900
3.24053	0.00000	4740.19900
3.24436	0.00000	4740.19900
3.24820	0.00000	4737.72300
3.25205	0.00000	4737.72300
3.25588	0.00000	4737.72300
3.25971	0.00000	4737.72300
3.26354	0.00000	4737.72300
3.26738	0.00000	4737.72300
3.27121	0.00000	4748.52000
3.27503	0.00000	4748.52000
3.27887	0.00000	4748.52000
3.28271	0.00000	4748.52000
3.28654	0.00000	4748.52000
3.29036	0.00000	4748.52000
3.29419	0.00000	4740.19900
3.29803	0.00000	4740.19900
3.30187	0.00000	4740.19900
3.30571	0.00000	4740.19900
3.30953	0.00000	4740.19900
3.31336	0.00000	4740.19900
3.31719	0.00000	4745.74700
3.32102	0.00000	4745.74700
3.32486	0.00000	4745.74700
3.32869	0.00000	4745.74700
3.33253	0.00000	4745.74700
3.33637	0.00000	4743.30300
3.34022	0.00000	4743.30300
3.34406	0.00000	4743.30300
3.34790	0.00000	4743.30300
3.35173	0.00000	4743.30300
3.35556	0.00000	4743.30300
3.35940	0.00000	4748.52000
3.36323	0.00000	4748.52000
3.36707	0.00000	4748.52000
3.37089	0.00000	4748.52000
3.37471	0.00000	4748.52000
3.37854	0.00000	4748.52000
3.38238	0.00000	4745.74700
3.38621	0.00000	4745.74700
3.39004	0.00000	4745.74700
3.39388	0.00000	4745.74700
3.39771	0.00000	4745.74700
3.40153	0.00000	4745.74700
3.40536	0.00000	4748.52000
3.40920	0.00000	4748.52000
3.41302	0.00000	4748.52000
3.41686	0.00000	4748.52000
3.42070	0.00000	4748.52000
3.42453	0.00000	4743.30300
3.42835	0.00000	4743.30300
3.43217	0.00000	4743.30300
3.43600	0.00000	4743.30300
3.43984	0.00000	4743.30300
3.44368	0.00000	4743.30300
3.44751	0.00000	4715.23700
3.45134	0.00000	4715.23700
3.45517	0.00000	4715.23700
3.45900	0.00000	4715.23700
3.46284	0.00000	4715.23700
3.46668	0.00000	4715.23700
3.47051	0.00000	4706.80200
3.47434	0.00000	4706.80200
3.47818	0.00000	4706.80200
3.48201	0.00000	4706.80200
3.48585	0.00000	4706.80200
3.48968	0.00000	4706.80200
3.49353	0.00000	4734.65200
3.49737	0.00000	4734.65200
3.50120	0.00000	4734.65200
3.50504	0.00000	4734.65200
3.50887	0.00000	4734.65200
3.51271	0.00000	4729.35200
3.51655	0.00000	4729.35200
3.52041	0.00000	4729.35200
3.52426	0.00000	4729.35200
3.52810	0.00000	4729.35200
3.53192	0.00000	4729.35200
3.53576	0.00000	4718.01000
3.53959	0.00000	4718.01000
3.54345	0.00000	4718.01000
3.54729	0.00000	4718.01000
3.55112	0.00000	4718.01000
3.55495	0.00000	4718.01000
3.55878	0.00000	4729.10500
3.56261	0.00000	4729.10500
3.56645	0.00000	4729.10500
3.57028	0.00000	4729.10500
3.57410	0.00000	4729.10500
3.57793	0.00000	4729.10500
3.58179	0.00000	4718.01000
3.58564	0.00000	4718.01000
3.58947	0.00000	4718.01000
3.59330	0.00000	4718.01000
3.59715	0.00000	4718.01000
3.60099	0.00000	4704.14200
3.60481	0.00000	4704.14200
3.60865	0.00000	4704.14200
3.61248	0.00000	4704.14200
3.61631	0.00000	4704.14200
3.62013	0.00000	4704.14200
3.62397	0.00000	4701.36800
3.62780	0.00000	4701.36800
3.63164	0.00000	4701.36800
3.63548	0.00000	4701.36800
3.63931	0.00000	4701.36800
3.64315	0.00000	4701.36800
3.64699	0.00000	4729.10500
3.65082	0.00000	4729.10500
3.65465	0.00000	4729.10500
3.65849	0.00000	4729.10500
3.66232	0.00000	4729.10500
3.66615	0.00000	4729.10500
3.66998	0.00000	4729.10500
3.67382	0.00000	4729.10500
3.67765	0.00000	4729.10500
3.68148	0.00000	4729.10500
3.68530	0.00000	4729.10500
3.68913	0.00000	4695.82100
3.69296	0.00000	4695.82100
3.69679	0.00000	4695.82100
3.70064	0.00000	4695.82100
3.70447	0.00000	4695.82100
3.70829	0.00000	4695.82100
3.71212	0.00000	4726.56200
3.71596	0.00000	4726.56200
3.71979	0.00000	4726.56200
3.72362	0.00000	4726.56200
3.72745	0.00000	4726.56200
3.73129	0.00000	4726.56200
3.73512	0.00000	4701.28600
3.73897	0.00000	4701.28600
3.74280	0.00000	4701.28600
3.74664	0.00000	4701.28600
3.75047	0.00000	4701.28600
3.75431	0.00000	4701.28600
3.75814	0.00000	4712.31600
3.76198	0.00000	4712.31600
3.76582	0.00000	4712.31600
3.76964	0.00000	4712.31600
3.77348	0.00000	4712.31600
3.77731	0.00000	4712.31600
3.78113	0.00000	4737.72300
3.78497	0.00000	4737.72300
3.78880	0.00000	4737.72300
3.79263	0.00000	4737.72300
3.79647	0.00000	4737.72300
3.80031	0.00000	4723.77200
3.80413	0.00000	4723.77200
3.80797	0.00000	4723.77200
3.81180	0.00000	4723.77200
3.81562	0.00000	4723.77200
3.81945	0.00000	4723.77200
3.82328	0.00000	4723.55700
3.82711	0.00000	4723.55700
3.83094	0.00000	4723.55700
3.83478	0.00000	4723.55700
3.83863	0.00000	4723.55700
3.84248	0.00000	4723.55700
3.84632	0.00000	4709.55900
3.85016	0.00000	4709.55900
3.85399	0.00000	4709.55900
3.85784	0.00000	4709.55900
3.86168	0.00000	4709.55900
3.86551	0.00000	4709.55900
3.86934	0.00000	4723.55700
3.87317	0.00000	4723.55700
3.87700	0.00000	4723.55700
3.88083	0.00000	4723.55700
3.88467	0.00000	4723.55700
3.88850	0.00000	4723.77200
3.89234	0.00000	4723.77200
3.89617	0.00000	4723.77200
3.90000	0.00000	4723.77200
3.90384	0.00000	4723.77200
3.90768	0.00000	4723.77200
3.91150	0.00000	4704.04400
3.91533	0.00000	4704.04400
3.91917	0.00000	4704.04400
3.92300	0.00000	4704.04400
3.92683	0.00000	4704.04400
3.93066	0.00000	4704.04400
3.93449	0.00000	4718.01000
3.93832	0.00000	4718.01000
3.94215	0.00000	4718.01000
3.94599	0.00000	4718.01000
3.94982	0.00000	4718.01000
3.95366	0.00000	4718.01000
3.95748	0.00000	4723.55700
3.96131	0.00000	4723.55700
3.96515	0.00000	4723.55700
3.96898	0.00000	4723.55700
3.97282	0.00000	4723.55700
3.97665	0.00000	4712.46300
3.98048	0.00000	4712.46300
3.98431	0.00000	4712.46300
3.98814	0.00000	4712.46300
3.99198	0.00000	4712.46300
3.99581	0.00000	4712.46300
3.99965	0.00000	4718.01000
4.00349	0.00000	4718.01000
4.00732	0.00000	4718.01000
4.01115	0.00000	4718.01000
4.01499	0.00000	4718.01000
4.01882	0.00000	4718.01000
4.02265	0.00000	4704.04400
4.02648	0.00000	4704.04400
4.03031	0.00000	4704.04400
4.03415	0.00000	4704.04400
4.03798	0.00000	4704.04400
4.04182	0.00000	4704.04400
4.04565	0.00000	4712.31600
4.04948	0.00000	4712.31600
4.05332	0.00000	4712.31600
4.05715	0.00000	4712.31600
4.06098	0.00000	4712.31600
4.06482	0.00000	4726.56200
4.06865	0.00000	4726.56200
4.07248	0.00000	4726.56200
4.07631	0.00000	4726.56200
4.08015	0.00000	4726.56200
4.08398	0.00000	4726.56200
4.08781	0.00000	4729.10500
4.09164	0.00000	4729.10500
4.09547	0.00000	4729.10500
4.09930	0.00000	4729.10500
4.10313	0.00000	4729.10500
4.10696	0.00000	4729.10500
4.11079	0.00000	4695.77200
4.11462	0.00000	4695.77200
4.11846	0.00000	4695.77200
4.12229	0.00000	4695.77200
4.12612	0.00000	4695.77200
4.12995	0.00000	4695.77200
4.13378	0.00000	4723.55700
4.13761	0.00000	4723.55700
4.14144	0.00000	4723.55700
4.14528	0.00000	4723.55700
4.14911	0.00000	4723.55700
4.15295	0.00000	4743.30300
4.15679	0.00000	4743.30300
4.16063	0.00000	4743.30300
4.16446	0.00000	4743.30300
4.16830	0.00000	4743.30300
4.17213	0.00000	4743.30300
4.17596	0.00000	4729.10500
4.17980	0.00000	4729.10500
4.18363	0.00000	4729.10500
4.18746	0.00000	4729.10500
4.19129	0.00000	4729.10500
4.19513	0.00000	4729.10500
4.19896	0.00000	4712.31600
4.20279	0.00000	4712.31600
4.20662	0.00000	4712.31600
4.21045	0.00000	4712.31600
4.21427	0.00000	4712.31600
4.21810	0.00000	4712.31600
4.22193	0.00000	4706.80200
4.22577	0.00000	4706.80200
4.22960	0.00000	4706.80200
4.23345	0.00000	4706.80200
4.23729	0.00000	4706.80200
4.24113	0.00000	4709.68900
4.24495	0.00000	4709.68900
4.24878	0.00000	4709.68900
4.25262	0.00000	4709.68900
4.25645	0.00000	4709.68900
4.26028	0.00000	4709.68900
4.26411	0.00000	4718.01000
4.26796	0.00000	4718.01000
4.27179	0.00000	4718.01000
4.27561	0.00000	4718.01000
4.27945	0.00000	4718.01000
4.28328	0.00000	4718.01000
4.28713	0.00000	4706.80200
4.29096	0.00000	4706.80200
4.29479	0.00000	4706.80200
4.29862	0.00000	4706.80200
4.30244	0.00000	4706.80200
4.30627	0.00000	4706.80200
4.31011	0.00000	4720.78400
4.31396	0.00000	4720.78400
4.31779	0.00000	4720.78400
4.32163	0.00000	4720.78400
4.32545	0.00000	4720.78400
4.32928	0.00000	4720.98200
4.33311	0.00000	4720.98200
4.33694	0.00000	4720.98200
4.34077	0.00000	4720.98200
4.34460	0.00000	4720.98200
4.34844	0.00000	4720.98200
4.35227	0.00000	4732.14200
4.35611	0.00000	4732.14200
4.35994	0.00000	4732.14200
4.36378	0.00000	4732.14200
4.36761	0.00000	4732.14200
4.37144	0.00000	4732.14200
4.37527	0.00000	4704.04400
4.37911	0.00000	4704.04400
4.38295	0.00000	4704.04400
4.38678	0.00000	4704.04400
4.39061	0.00000	4704.04400
4.39445	0.00000	4704.04400
4.39828	0.00000	4709.55900
4.40213	0.00000	4709.55900
4.40597	0.00000	4709.55900
4.40980	0.00000	4709.55900
4.41363	0.00000	4709.55900
4.41747	0.00000	4729.35200
4.42128	0.00000	4729.35200
4.42511	0.00000	4729.35200
4.42895	0.00000	4729.35200
4.43279	0.00000	4729.35200
4.43662	0.00000	4729.35200
4.44045	0.00000	4698.59400
4.44428	0.00000	4698.59400
4.44812	0.00000	4698.59400
4.45194	0.00000	4698.59400
4.45578	0.00000	4698.59400
4.45961	0.00000	4698.59400
4.46346	0.00000	4734.65200
4.46730	0.00000	4734.65200
4.47113	0.00000	4734.65200
4.47496	0.00000	4734.65200
4.47878	0.00000	4734.65200
4.48262	0.00000	4734.65200
4.48645	0.00000	4720.78400
4.49028	0.00000	4720.78400
4.49411	0.00000	4720.78400
4.49794	0.00000	4720.78400
4.50177	0.00000	4720.78400
4.50562	0.00000	4720.98200
4.50944	0.00000	4720.98200
4.51326	0.00000	4720.98200
4.51710	0.00000	4720.98200
4.52096	0.00000	4720.98200
4.52481	0.00000	4720.98200
4.52865	0.00000	4709.68900
4.53248	0.00000	4709.68900
4.53631	0.00000	4709.68900
4.54014	0.00000	4709.68900
4.54397	0.00000	4709.68900
4.54781	0.00000	4709.68900
4.55164	0.00000	4731.87800
4.55547	0.00000	4731.87800
4.55931	0.00000	4731.87800
4.56314	0.00000	4731.87800
4.56698	0.00000	4731.87800
4.57081	0.00000	4731.87800
4.57465	0.00000	4734.65200
4.57847	0.00000	4734.65200
4.58232	0.00000	4734.65200
4.58620	0.00000	4734.65200
4.59009	0.00000	4734.65200
4.59394	0.00000	4718.19200
4.59778	0.00000	4718.19200
4.60161	0.00000	4718.19200
4.60544	0.00000	4718.19200
4.60927	0.00000	4718.19200
4.61311	0.00000	4718.19200
4.61694	0.00000	4726.56200
4.62077	0.00000	4726.56200
4.62462	0.00000	4726.56200
4.62845	0.00000	4726.56200
4.63229	0.00000	4726.56200
4.63612	0.00000	4726.56200
4.63995	0.00000	4698.52900
4.64380	0.00000	4698.52900
4.64764	0.00000	4698.52900
4.65147	0.00000	4698.52900
4.65531	0.00000	4698.52900
4.65915	0.00000	4698.52900
4.66300	0.00000	4723.55700
4.66682	0.00000	4723.55700
4.67065	0.00000	4723.55700
4.67448	0.00000	4723.55700
4.67832	0.00000	4723.55700
4.68215	0.00000	4715.40200
4.68597	0.00000	4715.40200
4.68979	0.00000	4715.40200
4.69362	0.00000	4715.40200
4.69746	0.00000	4715.40200
4.70130	0.00000	4715.40200
4.70512	0.00000	4701.36800
4.70895	0.00000	4701.36800
4.71278	0.00000	4701.36800
4.71661	0.00000	4701.36800
4.72043	0.00000	4701.36800
4.72426	0.00000	4701.36800
4.72809	0.00000	4709.55900
4.73193	0.00000	4709.55900
4.73577	0.00000	4709.55900
4.73959	0.00000	4709.55900
4.74343	0.00000	4709.55900
4.74726	0.00000	4709.55900
4.75109	0.00000	4726.33100
4.75493	0.00000	4726.33100
4.75876	0.00000	4726.33100
4.76261	0.00000	4726.33100
4.76644	0.00000	4726.33100
4.77027	0.00000	4726.33100
4.77409	0.00000	4740.51300
4.77791	0.00000	4740.51300
4.78175	0.00000	4740.51300
4.78553	0.00000	4740.51300
4.78935	0.00000	4740.51300
4.79318	0.00000	4720.98200
4.79703	0.00000	4720.98200
4.80085	0.00000	4720.98200
4.80468	0.00000	4720.98200
4.80852	0.00000	4720.98200
4.81235	0.00000	4720.98200
4.81618	0.00000	4734.65200
4.82002	0.00000	4734.65200
4.82386	0.00000	4734.65200
4.82769	0.00000	4734.65200
4.83152	0.00000	4734.65200
4.83535	0.00000	4734.65200
4.83920	0.00000	4698.52900
4.84304	0.00000	4698.52900
4.84687	0.00000	4698.52900
4.85070	0.00000	4698.52900
4.85453	0.00000	4698.52900
4.85836	0.00000	4698.52900
4.86219	0.00000	4720.78400
4.86603	0.00000	4720.78400
4.86986	0.00000	4720.78400
4.87369	0.00000	4720.78400
4.87752	0.00000	4720.78400
4.88135	0.00000	4726.56200
4.88521	0.00000	4726.56200
4.88906	0.00000	4726.56200
4.89289	0.00000	4726.56200
4.89674	0.00000	4726.56200
4.90057	0.00000	4726.56200
4.90440	0.00000	4720.78400
4.90823	0.00000	4720.78400
4.91207	0.00000	4720.78400
4.91590	0.00000	4720.78400
4.91973	0.00000	4720.78400
4.92356	0.00000	4720.78400
4.92740	0.00000	4723.55700
4.93122	0.00000	4723.55700
4.93505	0.00000	4723.55700
4.93889	0.00000	4723.55700
4.94272	0.00000	4723.55700
4.94655	0.00000	4723.55700
4.95037	0.00000	4706.91500
4.95420	0.00000	4706.91500
4.95803	0.00000	4706.91500
4.96189	0.00000	4706.91500
4.96572	0.00000	4706.91500
4.96953	0.00000	4734.93300
4.97337	0.00000	4734.93300
4.97721	0.00000	4734.93300
4.98104	0.00000	4734.93300
4.98487	0.00000	4734.93300
4.98871	0.00000	4734.93300
4.99255	0.00000	4698.52900
4.99638	0.00000	4698.52900
5.00074	0.00000	4698.52900
5.00462	0.00000	4698.52900
5.00847	0.00000	4698.52900
5.01230	0.00000	4698.52900
5.01615	0.00000	4715.07300
5.01999	0.00000	4715.07300
5.02383	0.00000	4715.07300
5.02767	0.00000	4715.07300
5.03156	0.00000	4715.07300
5.03541	0.00000	4715.07300
5.03925	0.00000	4820.26700
5.04309	0.00000	4820.26700
5.04692	0.00000	4820.26700
5.05077	0.00000	4820.26700
5.05463	0.00000	4820.26700
5.05847	0.00000	4820.26700
5.06230	0.00000	4900.80700
5.06614	0.00000	4900.80700
5.06998	0.00000	4900.80700
5.07381	0.00000	4900.80700
5.07765	0.00000	4900.80700
5.08149	0.00000	4900.80700
5.08533	0.00000	5000.86300
5.08917	0.00000	5000.86300
5.09301	0.00000	5000.86300
5.09684	0.00000	5000.86300
5.10068	0.00000	5000.86300
5.10451	0.00000	5000.86300
5.10836	0.00000	5051.80000
5.11219	0.00000	5051.80000
5.11604	0.00000	5051.80000
5.11989	0.00000	5051.80000
5.12371	0.00000	5051.80000
5.12755	0.00000	5051.80000
5.13140	0.00000	5113.40700
5.13525	0.00000	5113.40700
5.13908	0.00000	5113.40700
5.14292	0.00000	5113.40700
5.14675	0.00000	5113.40700
5.15060	0.00000	5113.40700
5.15443	0.00000	5113.40700
5.15827	0.00000	5163.73000
5.16211	0.00000	5163.73000
5.16595	0.00000	5163.73000
5.16979	0.00000	5163.73000
5.17364	0.00000	5163.73000
5.17748	0.00000	5163.73000
5.18132	0.00000	5171.13100
5.18515	0.00000	5171.13100
5.18898	0.00000	5171.13100
5.19282	0.00000	5171.13100
5.19666	0.00000	5171.13100
5.20050	0.00000	5171.13100
5.20434	0.00000	5171.13100
5.20818	0.00000	5208.05900
5.21200	0.00000	5208.05900
5.21586	0.00000	5208.05900
5.21970	0.00000	5208.05900
5.22355	0.00000	5208.05900
5.22739	0.00000	5208.05900
5.23123	0.00000	5240.13200
5.23507	0.00000	5240.13200
5.23890	0.00000	5240.13200
5.24274	0.00000	5240.13200
5.24659	0.00000	5240.13200
5.25044	0.00000	5240.13200
5.25427	0.00000	5240.13200
5.25810	0.00000	5227.05100
5.26194	0.00000	5227.05100
5.26578	0.00000	5227.05100
5.26961	0.00000	5227.05100
5.27345	0.00000	5227.05100
5.27730	0.00000	5227.05100
5.28115	0.00000	5241.69900
5.28498	0.00000	5241.69900
5.28883	0.00000	5241.69900
5.29267	0.00000	5241.69900
5.29650	0.00000	5241.69900
5.30034	0.00000	5241.69900
5.30418	0.00000	5241.69900
5.30802	0.00000	5226.32100
5.31186	0.00000	5226.32100
5.31569	0.00000	5226.32100
5.31954	0.00000	5226.32100
5.32337	0.00000	5226.32100
5.32720	0.00000	5226.32100
5.33106	0.00000	5243.68500
5.33490	0.00000	5243.68500
5.33874	0.00000	5243.68500
5.34258	0.00000	5243.68500
5.34643	0.00000	5243.68500
5.35027	0.00000	5243.68500
5.35412	0.00000	5243.68500
5.35795	0.00000	5262.56400
5.36179	0.00000	5262.56400
5.36563	0.00000	5262.56400
5.36948	0.00000	5262.56400
5.37333	0.00000	5262.56400
5.37718	0.00000	5262.56400
5.38103	0.00000	5248.06700
5.38488	0.00000	5248.06700
5.38873	0.00000	5248.06700
5.39257	0.00000	5248.06700
5.39642	0.00000	5248.06700
5.40025	0.00000	5248.06700
5.40409	0.00000	5248.06700
5.40792	0.00000	5257.21100
5.41177	0.00000	5257.21100
5.41560	0.00000	5257.21100
5.41944	0.00000	5257.21100
5.42327	0.00000	5257.21100
5.42711	0.00000	5257.21100
5.43096	0.00000	5292.26000
5.43480	0.00000	5292.26000
5.43863	0.00000	5292.26000
5.44247	0.00000	5292.26000
5.44631	0.00000	5292.26000
5.45016	0.00000	5292.26000
5.45399	0.00000	5292.26000
5.45783	0.00000	5286.72700
5.46168	0.00000	5286.72700
5.46552	0.00000	5286.72700
5.46938	0.00000	5286.72700
5.47321	0.00000	5286.72700
5.47705	0.00000	5286.72700
5.48088	0.00000	5286.72700
5.48471	0.00000	5293.97500
5.48856	0.00000	5293.97500
5.49240	0.00000	5293.97500
5.49624	0.00000	5293.97500
5.50008	0.00000	5293.97500
5.50392	0.00000	5293.97500
5.50776	0.00000	5274.64600
5.51160	0.00000	5274.64600
5.51545	0.00000	5274.64600
5.51930	0.00000	5274.64600
5.52318	0.00000	5274.64600
5.52704	0.00000	5274.64600
5.53088	0.00000	5274.64600
5.53473	0.00000	5274.03800
5.53857	0.00000	5274.03800
5.54244	0.00000	5274.03800
5.54628	0.00000	5274.03800
5.55014	0.00000	5274.03800
5.55400	0.00000	5274.03800
5.55785	0.00000	5269.81300
5.56170	0.00000	5269.81300
5.56553	0.00000	5269.81300
5.56938	0.00000	5269.81300
5.57321	0.00000	5269.81300
5.57705	0.00000	5269.81300
5.58089	0.00000	5269.81300
5.58472	0.00000	5271.63500
5.58857	0.00000	5271.63500
5.59241	0.00000	5271.63500
5.59626	0.00000	5271.63500
5.60010	0.00000	5271.63500
5.60393	0.00000	5271.63500
5.60777	0.00000	5277.06200
5.61159	0.00000	5277.06200
5.61545	0.00000	5277.06200
5.61929	0.00000	5277.06200
5.62313	0.00000	5277.06200
5.62696	0.00000	5277.06200
5.63081	0.00000	5277.06200
5.63466	0.00000	5274.64600
5.63849	0.00000	5274.64600
5.64234	0.00000	5274.64600
5.64617	0.00000	5274.64600
5.65001	0.00000	5274.64600
5.65387	0.00000	5274.64600
5.65771	0.00000	5274.64600
5.66153	0.00000	5274.03800
5.66537	0.00000	5274.03800
5.66922	0.00000	5274.03800
5.67305	0.00000	5274.03800
5.67689	0.00000	5274.03800
5.68074	0.00000	5274.03800
5.68458	0.00000	5279.47800
5.68843	0.00000	5279.47800
5.69226	0.00000	5279.47800
5.69609	0.00000	5279.47800
5.69993	0.00000	5279.47800
5.70377	0.00000	5279.47800
5.70762	0.00000	5279.47800
5.71145	0.00000	5301.22400
5.71530	0.00000	5301.22400
5.71913	0.00000	5301.22400
5.72297	0.00000	5301.22400
5.72681	0.00000	5301.22400
5.73066	0.00000	5301.22400
5.73450	0.00000	5274.64600
5.73834	0.00000	5274.64600
5.74218	0.00000	5274.64600
5.74602	0.00000	5274.64600
5.74986	0.00000	5274.64600
5.75370	0.00000	5274.64600
5.75753	0.00000	5274.64600
5.76138	0.00000	5281.89400
5.76521	0.00000	5281.89400
5.76906	0.00000	5281.89400
5.77289	0.00000	5281.89400
5.77673	0.00000	5281.89400
5.78057	0.00000	5281.89400
5.78442	0.00000	5281.89400
5.78826	0.00000	5278.84600
5.79210	0.00000	5278.84600
5.79593	0.00000	5278.84600
5.79978	0.00000	5278.84600
5.80362	0.00000	5278.84600
5.80748	0.00000	5278.84600
5.81131	0.00000	5272.22900
5.81514	0.00000	5272.22900
5.81898	0.00000	5272.22900
5.82282	0.00000	5272.22900
5.82666	0.00000	5272.22900
5.83050	0.00000	5272.22900
5.83434	0.00000	5272.22900
5.83819	0.00000	5274.03800
5.84203	0.00000	5274.03800
5.84587	0.00000	5274.03800
5.84971	0.00000	5274.03800
5.85353	0.00000	5274.03800
5.85738	0.00000	5274.03800
5.86122	0.00000	5279.47800
5.86506	0.00000	5279.47800
5.86890	0.00000	5279.47800
5.87275	0.00000	5279.47800
5.87659	0.00000	5279.47800
5.88043	0.00000	5279.47800
5.88426	0.00000	5279.47800
5.88811	0.00000	5296.39100
5.89195	0.00000	5296.39100
5.89579	0.00000	5296.39100
5.89964	0.00000	5296.39100
5.90348	0.00000	5296.39100
5.90732	0.00000	5296.39100
5.91116	0.00000	5296.39100
5.91500	0.00000	5274.03800
5.91883	0.00000	5274.03800
5.92267	0.00000	5274.03800
5.92651	0.00000	5274.03800
5.93034	0.00000	5274.03800
5.93418	0.00000	5274.03800
5.93803	0.00000	5277.06200
5.94187	0.00000	5277.06200
5.94571	0.00000	5277.06200
5.94953	0.00000	5277.06200
5.95338	0.00000	5277.06200
5.95721	0.00000	5277.06200
5.96105	0.00000	5277.06200
5.96490	0.00000	5281.25000
5.96873	0.00000	5281.25000
5.97258	0.00000	5281.25000
5.97641	0.00000	5281.25000
5.98025	0.00000	5281.25000
5.98410	0.00000	5281.25000
5.98793	0.00000	5277.06200
5.99179	0.00000	5277.06200
5.99562	0.00000	5277.06200
5.99947	0.00000	5277.06200
6.00330	0.00000	5277.06200
6.00714	0.00000	5277.06200
6.01098	0.00000	5277.06200
6.01483	0.00000	5281.25000
6.01866	0.00000	5281.25000
6.02250	0.00000	5281.25000
6.02634	0.00000	5281.25000
6.03019	0.00000	5281.25000
6.03402	0.00000	5281.25000
6.03787	0.00000	5281.25000
6.04170	0.00000	5269.23100
6.04553	0.00000	5269.23100
6.04937	0.00000	5269.23100
6.05321	0.00000	5269.23100
6.05706	0.00000	5269.23100
6.06091	0.00000	5269.23100
6.06475	0.00000	5274.64600
6.06859	0.00000	5274.64600
6.07244	0.00000	5274.64600
6.07627	0.00000	5274.64600
6.08011	0.00000	5274.64600
6.08395	0.00000	5274.64600
6.08778	0.00000	5274.64600
6.09161	0.00000	5278.84600
6.09545	0.00000	5278.84600
6.09929	0.00000	5278.84600
6.10312	0.00000	5278.84600
6.10695	0.00000	5278.84600
6.11080	0.00000	5278.84600
6.11463	0.00000	5279.47800
6.11848	0.00000	5279.47800
6.12232	0.00000	5279.47800
6.12616	0.00000	5279.47800
6.13000	0.00000	5279.47800
6.13383	0.00000	5279.47800
6.13768	0.00000	5279.47800
6.14152	0.00000	5281.25000
6.14537	0.00000	5281.25000
6.14920	0.00000	5281.25000
6.15303	0.00000	5281.25000
6.15688	0.00000	5281.25000
6.16071	0.00000	5281.25000
6.16455	0.00000	5281.25000
6.16839	0.00000	5264.42300
6.17222	0.00000	5264.42300
6.17606	0.00000	5264.42300
6.17991	0.00000	5264.42300
6.18374	0.00000	5264.42300
6.18758	0.00000	5264.42300
6.19140	0.00000	5274.64600
6.19522	0.00000	5274.64600
6.19906	0.00000	5274.64600
6.20288	0.00000	5274.64600
6.20670	0.00000	5274.64600
6.21054	0.00000	5274.64600
6.21438	0.00000	5274.64600
6.21821	0.00000	5278.84600
6.22203	0.00000	5278.84600
6.22586	0.00000	5278.84600
6.22969	0.00000	5278.84600
6.23352	0.00000	5278.84600
6.23736	0.00000	5278.84600
6.24119	0.00000	5277.06200
6.24504	0.00000	5277.06200
6.24887	0.00000	5277.06200
6.25270	0.00000	5277.06200
6.25653	0.00000	5277.06200
6.26035	0.00000	5277.06200
6.26418	0.00000	5277.06200
6.26801	0.00000	5274.03800
6.27184	0.00000	5274.03800
6.27569	0.00000	5274.03800
6.27954	0.00000	5274.03800
6.28338	0.00000	5274.03800
6.28721	0.00000	5274.03800
6.29105	0.00000	5274.03800
6.29490	0.00000	5264.42300
6.29873	0.00000	5264.42300
6.30259	0.00000	5264.42300
6.30642	0.00000	5264.42300
6.31026	0.00000	5264.42300
6.31409	0.00000	5264.42300
6.31793	0.00000	5274.64600
6.32177	0.00000	5274.64600
6.32562	0.00000	5274.64600
6.32946	0.00000	5274.64600
6.33329	0.00000	5274.64600
6.33712	0.00000	5274.64600
6.34096	0.00000	5274.64600
6.34481	0.00000	5278.84600
6.34864	0.00000	5278.84600
6.35248	0.00000	5278.84600
6.35632	0.00000	5278.84600
6.36016	0.00000	5278.84600
6.36399	0.00000	5278.84600
6.36784	0.00000	5299.54600
6.37169	0.00000	5299.54600
6.37553	0.00000	5299.54600
6.37937	0.00000	5299.54600
6.38321	0.00000	5299.54600
6.38707	0.00000	5299.54600
6.39091	0.00000	5299.54600
6.39474	0.00000	5278.84600
6.39858	0.00000	5278.84600
6.40242	0.00000	5278.84600
6.40627	0.00000	5278.84600
6.41010	0.00000	5278.84600
6.41394	0.00000	5278.84600
6.41779	0.00000	5278.84600
6.42162	0.00000	5293.97500
6.42545	0.00000	5293.97500
6.42929	0.00000	5293.97500
6.43313	0.00000	5293.97500
6.43698	0.00000	5293.97500
6.44082	0.00000	5293.97500
6.44465	0.00000	5277.06200
6.44850	0.00000	5277.06200
6.45234	0.00000	5277.06200
6.45618	0.00000	5277.06200
6.46002	0.00000	5277.06200
6.46387	0.00000	5277.06200
6.46771	0.00000	5277.06200
6.47157	0.00000	5274.03800
6.47541	0.00000	5274.03800
6.47925	0.00000	5274.03800
6.48310	0.00000	5274.03800
6.48694	0.00000	5274.03800
6.49078	0.00000	5274.03800
6.49462	0.00000	5277.06200
6.49846	0.00000	5277.06200
6.50230	0.00000	5277.06200
6.50613	0.00000	5277.06200
6.50998	0.00000	5277.06200
6.51381	0.00000	5277.06200
6.51767	0.00000	5277.06200
6.52153	0.00000	5278.84600
6.52538	0.00000	5278.84600
6.52922	0.00000	5278.84600
6.53307	0.00000	5278.84600
6.53692	0.00000	5278.84600
6.54075	0.00000	5278.84600
6.54459	0.00000	5279.47800
6.54842	0.00000	5279.47800
6.55227	0.00000	5279.47800
6.55612	0.00000	5279.47800
6.55996	0.00000	5279.47800
6.56381	0.00000	5279.47800
6.56765	0.00000	5279.47800
6.57149	0.00000	5284.31000
6.57532	0.00000	5284.31000
6.57916	0.00000	5284.31000
6.58301	0.00000	5284.31000
6.58685	0.00000	5284.31000
6.59069	0.00000	5284.31000
6.59454	0.00000	5284.31000
6.59839	0.00000	5281.25000
6.60222	0.00000	5281.25000
6.60606	0.00000	5281.25000
6.60990	0.00000	5281.25000
6.61374	0.00000	5281.25000
6.61758	0.00000	5281.25000
6.62142	0.00000	5274.64600
6.62525	0.00000	5274.64600
6.62910	0.00000	5274.64600
6.63294	0.00000	5274.64600
6.63677	0.00000	5274.64600
6.64061	0.00000	5274.64600
6.64446	0.00000	5274.64600
6.64830	0.00000	5276.44200
6.65215	0.00000	5276.44200
6.65600	0.00000	5276.44200
6.65984	0.00000	5276.44200
6.66369	0.00000	5276.44200
6.66752	0.00000	5276.44200
6.67137	0.00000	5277.06200
6.67522	0.00000	5277.06200
6.67906	0.00000	5277.06200
6.68290	0.00000	5277.06200
6.68674	0.00000	5277.06200
6.69059	0.00000	5277.06200
6.69443	0.00000	5277.06200
6.69827	0.00000	5264.42300
6.70212	0.00000	5264.42300
6.70595	0.00000	5264.42300
6.70980	0.00000	5264.42300
6.71364	0.00000	5264.42300
6.71748	0.00000	5264.42300
6.72132	0.00000	5264.42300
6.72515	0.00000	5266.82600
6.72900	0.00000	5266.82600
6.73283	0.00000	5266.82600
6.73668	0.00000	5266.82600
6.74051	0.00000	5266.82600
6.74435	0.00000	5266.82600
6.74819	0.00000	5274.64600
6.75202	0.00000	5274.64600
6.75587	0.00000	5274.64600
6.75971	0.00000	5274.64600
6.76355	0.00000	5274.64600
6.76739	0.00000	5274.64600
6.77123	0.00000	5274.64600
6.77507	0.00000	5276.44200
6.77892	0.00000	5276.44200
6.78276	0.00000	5276.44200
6.78660	0.00000	5276.44200
6.79043	0.00000	5276.44200
6.79427	0.00000	5276.44200
6.79811	0.00000	5269.81300
6.80197	0.00000	5269.81300
6.80581	0.00000	5269.81300
6.80964	0.00000	5269.81300
6.81349	0.00000	5269.81300
6.81734	0.00000	5269.81300
6.82118	0.00000	5269.81300
6.82502	0.00000	5274.03800
6.82887	0.00000	5274.03800
6.83270	0.00000	5274.03800
6.83654	0.00000	5274.03800
6.84038	0.00000	5274.03800
6.84423	0.00000	5274.03800
6.84807	0.00000	5274.03800
6.85190	0.00000	5284.31000
6.85575	0.00000	5284.31000
6.85959	0.00000	5284.31000
6.86343	0.00000	5284.31000
6.86728	0.00000	5284.31000
6.87111	0.00000	5284.31000
6.87496	0.00000	5277.06200
6.87879	0.00000	5277.06200
6.88265	0.00000	5277.06200
6.88649	0.00000	5277.06200
6.89032	0.00000	5277.06200
6.89417	0.00000	5277.06200
6.89800	0.00000	5277.06200
6.90185	0.00000	5274.03800
6.90568	0.00000	5274.03800
6.90952	0.00000	5274.03800
6.91336	0.00000	5274.03800
6.91720	0.00000	5274.03800
6.92105	0.00000	5274.03800
6.92488	0.00000	5272.22900
6.92874	0.00000	5272.22900
6.93257	0.00000	5272.22900
6.93641	0.00000	5272.22900
6.94025	0.00000	5272.22900
6.94409	0.00000	5272.22900
6.94794	0.00000	5272.22900
6.95177	0.00000	5278.84600
6.95561	0.00000	5278.84600
6.95945	0.00000	5278.84600
6.96329	0.00000	5278.84600
6.96713	0.00000	5278.84600
6.97096	0.00000	5278.84600
6.97482	0.00000	5274.64600
6.97865	0.00000	5274.64600
6.98249	0.00000	5274.64600
6.98634	0.00000	5274.64600
6.99019	0.00000	5274.64600
6.99404	0.00000	5274.64600
6.99788	0.00000	5274.64600
7.00171	0.00000	5286.72700
7.00553	0.00000	5286.72700
7.00937	0.00000	5286.72700
7.01321	0.00000	5286.72700
7.01705	0.00000	5286.72700
7.02089	0.00000	5286.72700
7.02473	0.00000	5286.72700
7.02857	0.00000	5281.25000
7.03241	0.00000	5281.25000
7.03625	0.00000	5281.25000
7.04009	0.00000	5281.25000
7.04393	0.00000	5281.25000
7.04778	0.00000	5281.25000
7.05162	0.00000	5279.47800
7.05545	0.00000	5279.47800
7.05929	0.00000	5279.47800
7.06313	0.00000	5279.47800
7.06699	0.00000	5279.47800
7.07084	0.00000	5279.47800
7.07469	0.00000	5279.47800
7.07853	0.00000	5278.84600
7.08238	0.00000	5278.84600
7.08622	0.00000	5278.84600
7.09006	0.00000	5278.84600
7.09390	0.00000	5278.84600
7.09774	0.00000	5278.84600
7.10159	0.00000	5286.72700
7.10543	0.00000	5286.72700
7.10927	0.00000	5286.72700
7.11311	0.00000	5286.72700
7.11695	0.00000	5286.72700
7.12081	0.00000	5286.72700
7.12464	0.00000	5286.72700
7.12848	0.00000	5296.39100
7.13232	0.00000	5296.39100
7.13615	0.00000	5296.39100
7.14000	0.00000	5296.39100
7.14383	0.00000	5296.39100
7.14767	0.00000	5296.39100
7.15151	0.00000	5296.39100
7.15536	0.00000	5286.05700
7.15921	0.00000	5286.05700
7.16305	0.00000	5286.05700
7.16691	0.00000	5286.05700
7.17075	0.00000	5286.05700
7.17459	0.00000	5286.05700
7.17842	0.00000	5281.89400
7.18229	0.00000	5281.89400
7.18612	0.00000	5281.89400
7.18996	0.00000	5281.89400
7.19381	0.00000	5281.89400
7.19765	0.00000	5281.89400
7.20150	0.00000	5281.89400
7.20534	0.00000	5293.26900
7.20918	0.00000	5293.26900
7.21302	0.00000	5293.26900
7.21687	0.00000	5293.26900
7.22072	0.00000	5293.26900
7.22456	0.00000	5293.26900
7.22840	0.00000	5289.14300
7.23225	0.00000	5289.14300
7.23610	0.00000	5289.14300
7.23994	0.00000	5289.14300
7.24379	0.00000	5289.14300
7.24764	0.00000	5289.14300
7.25147	0.00000	5289.14300
7.25531	0.00000	5281.25000
7.25915	0.00000	5281.25000
7.26299	0.00000	5281.25000
7.26682	0.00000	5281.25000
7.27065	0.00000	5281.25000
7.27449	0.00000	5281.25000
7.27834	0.00000	5281.25000
7.28218	0.00000	5290.86500
7.28602	0.00000	5290.86500
7.28986	0.00000	5290.86500
7.29371	0.00000	5290.86500
7.29753	0.00000	5290.86500
7.30139	0.00000	5290.86500
7.30523	0.00000	5293.97500
7.30907	0.00000	5293.97500
7.31291	0.00000	5293.97500
7.31676	0.00000	5293.97500
7.32060	0.00000	5293.97500
7.32443	0.00000	5293.97500
7.32828	0.00000	5293.97500
7.33212	0.00000	5295.67300
7.33596	0.00000	5295.67300
7.33980	0.00000	5295.67300
7.34364	0.00000	5295.67300
7.34747	0.00000	5295.67300
7.35130	0.00000	5295.67300
7.35514	0.00000	5293.97500
7.35898	0.00000	5293.97500
7.36282	0.00000	5293.97500
7.36666	0.00000	5293.97500
7.37051	0.00000	5293.97500
7.37435	0.00000	5293.97500
7.37818	0.00000	5293.97500
7.38202	0.00000	5306.05600
7.38586	0.00000	5306.05600
7.38971	0.00000	5306.05600
7.39353	0.00000	5306.05600
7.39736	0.00000	5306.05600
7.40121	0.00000	5306.05600
7.40505	0.00000	5306.05600
7.40889	0.00000	5298.07600
7.41272	0.00000	5298.07600
7.41657	0.00000	5298.07600
7.42041	0.00000	5298.07600
7.42425	0.00000	5298.07600
7.42810	0.00000	5298.07600
7.43195	0.00000	5269.23100
7.43579	0.00000	5269.23100
7.43963	0.00000	5269.23100
7.44348	0.00000	5269.23100
7.44732	0.00000	5269.23100
7.45116	0.00000	5269.23100
7.45501	0.00000	5269.23100
7.45884	0.00000	5298.07600
7.46270	0.00000	5298.07600
7.46653	0.00000	5298.07600
7.47037	0.00000	5298.07600
7.47421	0.00000	5298.07600
7.47806	0.00000	5298.07600
7.48190	0.00000	5291.55900
7.48572	0.00000	5291.55900
7.48953	0.00000	5291.55900
7.49337	0.00000	5291.55900
7.49721	0.00000	5291.55900
7.50106	0.00000	5291.55900
7.50490	0.00000	5291.55900
7.50875	0.00000	5301.22400
7.51259	0.00000	5301.22400
7.51644	0.00000	5301.22400
7.52032	0.00000	5301.22400
7.52417	0.00000	5301.22400
7.52801	0.00000	5301.22400
7.53186	0.00000	5301.22400
7.53570	0.00000	5298.07600
7.53955	0.00000	5298.07600
7.54339	0.00000	5298.07600
7.54722	0.00000	5298.07600
7.55106	0.00000	5298.07600
7.55491	0.00000	5298.07600
7.55874	0.00000	5296.39100
7.56259	0.00000	5296.39100
7.56644	0.00000	5296.39100
7.57028	0.00000	5296.39100
7.57412	0.00000	5296.39100
7.57796	0.00000	5296.39100
7.58184	0.00000	5296.39100
7.58569	0.00000	5302.88500
7.58953	0.00000	5302.88500
7.59338	0.00000	5302.88500
7.59722	0.00000	5302.88500
7.60107	0.00000	5302.88500
7.60491	0.00000	5302.88500
7.60875	0.00000	5296.39100
7.61260	0.00000	5296.39100
7.61645	0.00000	5296.39100
7.62029	0.00000	5296.39100
7.62414	0.00000	5296.39100
7.62799	0.00000	5296.39100
7.63184	0.00000	5296.39100
7.63568	0.00000	5303.64000
7.63953	0.00000	5303.64000
7.64337	0.00000	5303.64000
7.64720	0.00000	5303.64000
7.65105	0.00000	5303.64000
7.65489	0.00000	5303.64000
7.65873	0.00000	5303.64000
7.66256	0.00000	5266.26200
7.66642	0.00000	5266.26200
7.67026	0.00000	5266.26200
7.67409	0.00000	5266.26200
7.67794	0.00000	5266.26200
7.68178	0.00000	5266.26200
7.68563	0.00000	5296.39100
7.68947	0.00000	5296.39100
7.69332	0.00000	5296.39100
7.69716	0.00000	5296.39100
7.70100	0.00000	5296.39100
7.70485	0.00000	5296.39100
7.70870	0.00000	5296.39100
7.71255	0.00000	5290.86500
7.71639	0.00000	5290.86500
7.72024	0.00000	5290.86500
7.72408	0.00000	5290.86500
7.72791	0.00000	5290.86500
7.73175	0.00000	5290.86500
7.73559	0.00000	5291.55900
7.73943	0.00000	5291.55900
7.74327	0.00000	5291.55900
7.74711	0.00000	5291.55900
7.75095	0.00000	5291.55900
7.75479	0.00000	5291.55900
7.75863	0.00000	5291.55900
7.76247	0.00000	5281.25000
7.76632	0.00000	5281.25000
7.77016	0.00000	5281.25000
7.77400	0.00000	5281.25000
7.77784	0.00000	5281.25000
7.78168	0.00000	5281.25000
7.78552	0.00000	5281.25000
7.78937	0.00000	5273.43700
7.79321	0.00000	5273.43700
7.79704	0.00000	5273.43700
7.80087	0.00000	5273.43700
7.80472	0.00000	5273.43700
7.80856	0.00000	5273.43700
7.81240	0.00000	5291.55900
7.81624	0.00000	5291.55900
7.82008	0.00000	5291.55900
7.82392	0.00000	5291.55900
7.82775	0.00000	5291.55900
7.83159	0.00000	5291.55900
7.83544	0.00000	5291.55900
7.83929	0.00000	5271.04600
7.84312	0.00000	5271.04600
7.84697	0.00000	5271.04600
7.85080	0.00000	5271.04600
7.85464	0.00000	5271.04600
7.85849	0.00000	5271.04600
7.86233	0.00000	5291.55900
7.86617	0.00000	5291.55900
7.87000	0.00000	5291.55900
7.87385	0.00000	5291.55900
7.87769	0.00000	5291.55900
7.88153	0.00000	5291.55900
7.88538	0.00000	5291.55900
7.88922	0.00000	5276.44200
7.89306	0.00000	5276.44200
7.89690	0.00000	5276.44200
7.90074	0.00000	5276.44200
7.90459	0.00000	5276.44200
7.90844	0.00000	5276.44200
7.91228	0.00000	5276.44200
7.91612	0.00000	5300.48100
7.91996	0.00000	5300.48100
7.92380	0.00000	5300.48100
7.92765	0.00000	5300.48100
7.93149	0.00000	5300.48100
7.93532	0.00000	5300.48100
7.93917	0.00000	5296.39100
7.94301	0.00000	5296.39100
7.94686	0.00000	5296.39100
7.95069	0.00000	5296.39100
7.95453	0.00000	5296.39100
7.95837	0.00000	5296.39100
7.96221	0.00000	5296.39100
7.96605	0.00000	5273.43700
7.96988	0.00000	5273.43700
7.97373	0.00000	5273.43700
7.97753	0.00000	5273.43700
7.98138	0.00000	5273.43700
7.98522	0.00000	5273.43700
7.98906	0.00000	5273.43700
7.99289	0.00000	5281.25000
7.99674	0.00000	5281.25000
8.00059	0.00000	5281.25000
8.00442	0.00000	5281.25000
8.00827	0.00000	5281.25000
8.01211	0.00000	5281.25000
8.01595	0.00000	5271.63500
8.01979	0.00000	5271.63500
8.02363	0.00000	5271.63500
8.02748	0.00000	5271.63500
8.03134	0.00000	5271.63500
8.03519	0.00000	5271.63500
8.03902	0.00000	5271.63500
8.04286	0.00000	5275.82900
8.04670	0.00000	5275.82900
8.05054	0.00000	5275.82900
8.05438	0.00000	5275.82900
8.05822	0.00000	5275.82900
8.06206	0.00000	5275.82900
8.06590	0.00000	5298.80800
8.06976	0.00000	5298.80800
8.07360	0.00000	5298.80800
8.07743	0.00000	5298.80800
8.08127	0.00000	5298.80800
8.08510	0.00000	5298.80800
8.08894	0.00000	5298.80800
8.09278	0.00000	5300.48100
8.09662	0.00000	5300.48100
8.10047	0.00000	5300.48100
8.10431	0.00000	5300.48100
8.10815	0.00000	5300.48100
8.11200	0.00000	5300.48100
8.11584	0.00000	5300.48100
8.11968	0.00000	5288.46100
8.12353	0.00000	5288.46100
8.12737	0.00000	5288.46100
8.13121	0.00000	5288.46100
8.13505	0.00000	5288.46100
8.13889	0.00000	5288.46100
8.14274	0.00000	5303.64000
8.14659	0.00000	5303.64000
8.15044	0.00000	5303.64000
8.15428	0.00000	5303.64000
8.15812	0.00000	5303.64000
8.16195	0.00000	5303.64000
8.16579	0.00000	5303.64000
8.16963	0.00000	5273.43700
8.17348	0.00000	5273.43700
8.17734	0.00000	5273.43700
8.18117	0.00000	5273.43700
8.18501	0.00000	5273.43700
8.18885	0.00000	5273.43700
8.19269	0.00000	5269.23100
8.19655	0.00000	5269.23100
8.20040	0.00000	5269.23100
8.20426	0.00000	5269.23100
8.20810	0.00000	5269.23100
8.21194	0.00000	5269.23100
8.21577	0.00000	5269.23100
8.21961	0.00000	5295.67300
8.22346	0.00000	5295.67300
8.22730	0.00000	5295.67300
8.23114	0.00000	5295.67300
8.23499	0.00000	5295.67300
8.23883	0.00000	5295.67300
8.24267	0.00000	5295.67300
8.24650	0.00000	5293.26900
8.25035	0.00000	5293.26900
8.25419	0.00000	5293.26900
8.25803	0.00000	5293.26900
8.26187	0.00000	5293.26900
8.26571	0.00000	5293.26900
8.26953	0.00000	5274.03800
8.27337	0.00000	5274.03800
8.27723	0.00000	5274.03800
8.28107	0.00000	5274.03800
8.28490	0.00000	5274.03800
8.28874	0.00000	5274.03800
8.29259	0.00000	5274.03800
8.29643	0.00000	5300.48100
8.30026	0.00000	5300.48100
8.30412	0.00000	5300.48100
8.30796	0.00000	5300.48100
8.31181	0.00000	5300.48100
8.31565	0.00000	5300.48100
8.31948	0.00000	5301.22400
8.32331	0.00000	5301.22400
8.32715	0.00000	5301.22400
8.33100	0.00000	5301.22400
8.33484	0.00000	5301.22400
8.33868	0.00000	5301.22400
8.34252	0.00000	5301.22400
8.34636	0.00000	5293.26900
8.35019	0.00000	5293.26900
8.35403	0.00000	5293.26900
8.35788	0.00000	5293.26900
8.36172	0.00000	5293.26900
8.36553	0.00000	5293.26900
8.36938	0.00000	5293.26900
8.37322	0.00000	5283.00400
8.37706	0.00000	5283.00400
8.38090	0.00000	5283.00400
8.38475	0.00000	5283.00400
8.38860	0.00000	5283.00400
8.39244	0.00000	5283.00400
8.39628	0.00000	5298.80800
8.40012	0.00000	5298.80800
8.40396	0.00000	5298.80800
8.40779	0.00000	5298.80800
8.41164	0.00000	5298.80800
8.41548	0.00000	5298.80800
8.41932	0.00000	5298.80800
8.42316	0.00000	5300.48100
8.42700	0.00000	5300.48100
8.43083	0.00000	5300.48100
8.43467	0.00000	5300.48100
8.43852	0.00000	5300.48100
8.44235	0.00000	5300.48100
8.44620	0.00000	5303.64000
8.45002	0.00000	5303.64000
8.45387	0.00000	5303.64000
8.45772	0.00000	5303.64000
8.46153	0.00000	5303.64000
8.46537	0.00000	5303.64000
8.46921	0.00000	5303.64000
8.47305	0.00000	5310.88900
8.47690	0.00000	5310.88900
8.48074	0.00000	5310.88900
8.48460	0.00000	5310.88900
8.48844	0.00000	5310.88900
8.49229	0.00000	5310.88900
8.49614	0.00000	5310.88900
8.49997	0.00000	5305.28800
8.50380	0.00000	5305.28800
8.50763	0.00000	5305.28800
8.51148	0.00000	5305.28800
8.51532	0.00000	5305.28800
8.51918	0.00000	5305.28800
8.52305	0.00000	5301.22400
8.52693	0.00000	5301.22400
8.53078	0.00000	5301.22400
8.53462	0.00000	5301.22400
8.53846	0.00000	5301.22400
8.54231	0.00000	5301.22400
8.54615	0.00000	5301.22400
8.55000	0.00000	5273.43700
8.55384	0.00000	5273.43700
8.55768	0.00000	5273.43700
8.56153	0.00000	5273.43700
8.56537	0.00000	5273.43700
8.56921	0.00000	5273.43700
8.57306	0.00000	5303.64000
8.57690	0.00000	5303.64000
8.58073	0.00000	5303.64000
8.58457	0.00000	5303.64000
8.58843	0.00000	5303.64000
8.59226	0.00000	5303.64000
8.59611	0.00000	5303.64000
8.59995	0.00000	5281.25000
8.60380	0.00000	5281.25000
8.60764	0.00000	5281.25000
8.61148	0.00000	5281.25000
8.61532	0.00000	5281.25000
8.61916	0.00000	5281.25000
8.62301	0.00000	5281.25000
8.62685	0.00000	5280.61200
8.63069	0.00000	5280.61200
8.63453	0.00000	5280.61200
8.63837	0.00000	5280.61200
8.64222	0.00000	5280.61200
8.64605	0.00000	5280.61200
8.64990	0.00000	5298.80800
8.65376	0.00000	5298.80800
8.65760	0.00000	5298.80800
8.66144	0.00000	5298.80800
8.66527	0.00000	5298.80800
8.66912	0.00000	5298.80800
8.67296	0.00000	5298.80800
8.67681	0.00000	5307.69200
8.68065	0.00000	5307.69200
8.68449	0.00000	5307.69200
8.68833	0.00000	5307.69200
8.69219	0.00000	5307.69200
8.69604	0.00000	5307.69200
8.69988	0.00000	5307.69200
8.70371	0.00000	5315.72100
8.70755	0.00000	5315.72100
8.71141	0.00000	5315.72100
8.71525	0.00000	5315.72100
8.71909	0.00000	5315.72100
8.72293	0.00000	5315.72100
8.72678	0.00000	5298.80800
8.73063	0.00000	5298.80800
8.73447	0.00000	5298.80800
8.73831	0.00000	5298.80800
8.74215	0.00000	5298.80800
8.74599	0.00000	5298.80800
8.74983	0.00000	5298.80800
8.75367	0.00000	5305.28800
8.75751	0.00000	5305.28800
8.76136	0.00000	5305.28800
8.76521	0.00000	5305.28800
8.76904	0.00000	5305.28800
8.77289	0.00000	5305.28800
8.77673	0.00000	5301.22400
8.78058	0.00000	5301.22400
8.78442	0.00000	5301.22400
8.78826	0.00000	5301.22400
8.79210	0.00000	5301.22400
8.79593	0.00000	5301.22400
8.79977	0.00000	5301.22400
8.80361	0.00000	5280.61200
8.80745	0.00000	5280.61200
8.81129	0.00000	5280.61200
8.81513	0.00000	5280.61200
8.81897	0.00000	5280.61200
8.82282	0.00000	5280.61200
8.82665	0.00000	5280.61200
8.83049	0.00000	5295.67300
8.83433	0.00000	5295.67300
8.83818	0.00000	5295.67300
8.84201	0.00000	5295.67300
8.84586	0.00000	5295.67300
8.84969	0.00000	5295.67300
8.85353	0.00000	5283.65400
8.85737	0.00000	5283.65400
8.86120	0.00000	5283.65400
8.86504	0.00000	5283.65400
8.86889	0.00000	5283.65400
8.87272	0.00000	5283.65400
8.87656	0.00000	5283.65400
8.88040	0.00000	5285.39500
8.88424	0.00000	5285.39500
8.88808	0.00000	5285.39500
8.89192	0.00000	5285.39500
8.89577	0.00000	5285.39500
8.89960	0.00000	5285.39500
8.90345	0.00000	5306.05600
8.90728	0.00000	5306.05600
8.91112	0.00000	5306.05600
8.91496	0.00000	5306.05600
8.91880	0.00000	5306.05600
8.92264	0.00000	5306.05600
8.92649	0.00000	5306.05600
8.93032	0.00000	5293.26900
8.93416	0.00000	5293.26900
8.93800	0.00000	5293.26900
8.94184	0.00000	5293.26900
8.94569	0.00000	5293.26900
8.94953	0.00000	5293.26900
8.95337	0.00000	5293.26900
8.95721	0.00000	5278.22000
8.96106	0.00000	5278.22000
8.96490	0.00000	5278.22000
8.96873	0.00000	5278.22000
8.97257	0.00000	5278.22000
8.97640	0.00000	5278.22000
8.98025	0.00000	5276.44200
8.98410	0.00000	5276.44200
8.98794	0.00000	5276.44200
8.99178	0.00000	5276.44200
8.99562	0.00000	5276.44200
8.99946	0.00000	5276.44200
9.00330	0.00000	5276.44200
9.00715	0.00000	5278.22000
9.01099	0.00000	5278.22000
9.01483	0.00000	5278.22000
9.01867	0.00000	5278.22000
9.02250	0.00000	5278.22000
9.02634	0.00000	5278.22000
9.03019	0.00000	5301.22400
9.03401	0.00000	5301.22400
9.03785	0.00000	5301.22400
9.04170	0.00000	5301.22400
9.04553	0.00000	5301.22400
9.04937	0.00000	5301.22400
9.05321	0.00000	5301.22400
9.05705	0.00000	5281.25000
9.06089	0.00000	5281.25000
9.06473	0.00000	5281.25000
9.06858	0.00000	5281.25000
9.07242	0.00000	5281.25000
9.07626	0.00000	5281.25000
9.08010	0.00000	5281.25000
9.08394	0.00000	5300.48100
9.08778	0.00000	5300.48100
9.09162	0.00000	5300.48100
9.09547	0.00000	5300.48100
9.09931	0.00000	5300.48100
9.10315	0.00000	5300.48100
9.10699	0.00000	5301.22400
9.11085	0.00000	5301.22400
9.11469	0.00000	5301.22400
9.11853	0.00000	5301.22400
9.12238	0.00000	5301.22400
9.12622	0.00000	5301.22400
9.13007	0.00000	5301.22400
9.13391	0.00000	5278.22000
9.13775	0.00000	5278.22000
9.14159	0.00000	5278.22000
9.14543	0.00000	5278.22000
9.14927	0.00000	5278.22000
9.15311	0.00000	5278.22000
9.15693	0.00000	5278.22000
9.16077	0.00000	5278.84600
9.16461	0.00000	5278.84600
9.16846	0.00000	5278.84600
9.17229	0.00000	5278.84600
9.17615	0.00000	5278.84600
9.17999	0.00000	5278.84600
9.18382	0.00000	5291.55900
9.18766	0.00000	5291.55900
9.19150	0.00000	5291.55900
9.19534	0.00000	5291.55900
9.19918	0.00000	5291.55900
9.20302	0.00000	5291.55900
9.20686	0.00000	5291.55900
9.21070	0.00000	5293.26900
9.21454	0.00000	5293.26900
9.21837	0.00000	5293.26900
9.22222	0.00000	5293.26900
9.22605	0.00000	5293.26900
9.22989	0.00000	5293.26900
9.23373	0.00000	5296.39100
9.23759	0.00000	5296.39100
9.24144	0.00000	5296.39100
9.24528	0.00000	5296.39100
9.24913	0.00000	5296.39100
9.25297	0.00000	5296.39100
9.25682	0.00000	5296.39100
9.26066	0.00000	5266.26200
9.26450	0.00000	5266.26200
9.26833	0.00000	5266.26200
9.27217	0.00000	5266.26200
9.27601	0.00000	5266.26200
9.27984	0.00000	5266.26200
9.28369	0.00000	5266.26200
9.28753	0.00000	5281.25000
9.29137	0.00000	5281.25000
9.29521	0.00000	5281.25000
9.29906	0.00000	5281.25000
9.30290	0.00000	5281.25000
9.30674	0.00000	5281.25000
9.31058	0.00000	5266.82600
9.31441	0.00000	5266.82600
9.31825	0.00000	5266.82600
9.32209	0.00000	5266.82600
9.32594	0.00000	5266.82600
9.32977	0.00000	5266.82600
9.33363	0.00000	5266.82600
9.33748	0.00000	5298.07600
9.34132	0.00000	5298.07600
9.34516	0.00000	5298.07600
9.34902	0.00000	5298.07600
9.35286	0.00000	5298.07600
9.35670	0.00000	5298.07600
9.36053	0.00000	5291.55900
9.36437	0.00000	5291.55900
9.36821	0.00000	5291.55900
9.37206	0.00000	5291.55900
9.37589	0.00000	5291.55900
9.37974	0.00000	5291.55900
9.38358	0.00000	5291.55900
9.38742	0.00000	5290.86500
9.39126	0.00000	5290.86500
9.39510	0.00000	5290.86500
9.39894	0.00000	5290.86500
9.40278	0.00000	5290.86500
9.40662	0.00000	5290.86500
9.41047	0.00000	5290.86500
9.41430	0.00000	5306.05600
9.41815	0.00000	5306.05600
9.42200	0.00000	5306.05600
9.42584	0.00000	5306.05600
9.42968	0.00000	5306.05600
9.43353	0.00000	5306.05600
9.43737	0.00000	5301.22400
9.44121	0.00000	5301.22400
9.44505	0.00000	5301.22400
9.44888	0.00000	5301.22400
9.45271	0.00000	5301.22400
9.45655	0.00000	5301.22400
9.46039	0.00000	5301.22400
9.46423	0.00000	5302.88500
9.46807	0.00000	5302.88500
9.47192	0.00000	5302.88500
9.47576	0.00000	5302.88500
9.47961	0.00000	5302.88500
9.48346	0.00000	5302.88500
9.48730	0.00000	5264.42300
9.49114	0.00000	5264.42300
9.49498	0.00000	5264.42300
9.49882	0.00000	5264.42300
9.50267	0.00000	5264.42300
9.50650	0.00000	5264.42300
9.51034	0.00000	5264.42300
9.51418	0.00000	5298.07600
9.51803	0.00000	5298.07600
9.52190	0.00000	5298.07600
9.52576	0.00000	5298.07600
9.52960	0.00000	5298.07600
9.53345	0.00000	5298.07600
9.53729	0.00000	5298.07600
9.54112	0.00000	5283.65400
9.54497	0.00000	5283.65400
9.54881	0.00000	5283.65400
9.55265	0.00000	5283.65400
9.55649	0.00000	5283.65400
9.56032	0.00000	5283.65400
9.56417	0.00000	5271.63500
9.56801	0.00000	5271.63500
9.57185	0.00000	5271.63500
9.57569	0.00000	5271.63500
9.57953	0.00000	5271.63500
9.58337	0.00000	5271.63500
9.58722	0.00000	5271.63500
9.59106	0.00000	5300.48100
9.59491	0.00000	5300.48100
9.59875	0.00000	5300.48100
9.60259	0.00000	5300.48100
9.60643	0.00000	5300.48100
9.61027	0.00000	5300.48100
9.61410	0.00000	5298.80800
9.61795	0.00000	5298.80800
9.62181	0.00000	5298.80800
9.62566	0.00000	5298.80800
9.62951	0.00000	5298.80800
9.63335	0.00000	5298.80800
9.63718	0.00000	5298.80800
9.64103	0.00000	5271.04600
9.64487	0.00000	5271.04600
9.64870	0.00000	5271.04600
9.65255	0.00000	5271.04600
9.65639	0.00000	5271.04600
9.66024	0.00000	5271.04600
9.66407	0.00000	5271.04600
9.66791	0.00000	5293.26900
9.67175	0.00000	5293.26900
9.67560	0.00000	5293.26900
9.67943	0.00000	5293.26900
9.68327	0.00000	5293.26900
9.68711	0.00000	5293.26900
9.69095	0.00000	5303.64000
9.69479	0.00000	5303.64000
9.69862	0.00000	5303.64000
9.70246	0.00000	5303.64000
9.70631	0.00000	5303.64000
9.71016	0.00000	5303.64000
9.71400	0.00000	5303.64000
9.71786	0.00000	5273.43700
9.72170	0.00000	5273.43700
9.72553	0.00000	5273.43700
9.72937	0.00000	5273.43700
9.73320	0.00000	5273.43700
9.73704	0.00000	5273.43700
9.74089	0.00000	5296.39100
9.74472	0.00000	5296.39100
9.74857	0.00000	5296.39100
9.75241	0.00000	5296.39100
9.75626	0.00000	5296.39100
9.76010	0.00000	5296.39100
9.76394	0.00000	5296.39100
9.76778	0.00000	5288.46100
9.77162	0.00000	5288.46100
9.77546	0.00000	5288.46100
9.77929	0.00000	5288.46100
9.78313	0.00000	5288.46100
9.78697	0.00000	5288.46100
9.79081	0.00000	5288.46100
9.79465	0.00000	5273.43700
9.79850	0.00000	5273.43700
9.80234	0.00000	5273.43700
9.80618	0.00000	5273.43700
9.81002	0.00000	5273.43700
9.81385	0.00000	5273.43700
9.81769	0.00000	5298.80800
9.82153	0.00000	5298.80800
9.82537	0.00000	5298.80800
9.82922	0.00000	5298.80800
9.83306	0.00000	5298.80800
9.83689	0.00000	5298.80800
9.84073	0.00000	5298.80800
9.84457	0.00000	5298.07600
9.84841	0.00000	5298.07600
9.85224	0.00000	5298.07600
9.85609	0.00000	5298.07600
9.85993	0.00000	5298.07600
9.86377	0.00000	5298.07600
9.86760	0.00000	5271.63500
9.87144	0.00000	5271.63500
9.87529	0.00000	5271.63500
9.87912	0.00000	5271.63500
9.88297	0.00000	5271.63500
9.88682	0.00000	5271.63500
9.89065	0.00000	5271.63500
9.89449	0.00000	5310.88900
9.89833	0.00000	5310.88900
9.90217	0.00000	5310.88900
9.90601	0.00000	5310.88900
9.90986	0.00000	5310.88900
9.91370	0.00000	5310.88900
9.91753	0.00000	5310.88900
9.92137	0.00000	5271.04600
9.92521	0.00000	5271.04600
9.92906	0.00000	5271.04600
9.93289	0.00000	5271.04600
9.93674	0.00000	5271.04600
9.94057	0.00000	5271.04600
9.94441	0.00000	5296.39100
9.94824	0.00000	5296.39100
9.95209	0.00000	5296.39100
9.95593	0.00000	5296.39100
9.95976	0.00000	5296.39100
9.96361	0.00000	5296.39100
9.96745	0.00000	5296.39100
9.97129	0.00000	5300.48100
9.97514	0.00000	5300.48100
9.97898	0.00000	5300.48100
9.98282	0.00000	5300.48100
9.98665	0.00000	5300.48100
9.99049	0.00000	5300.48100
9.99432	0.00000	5303.64000
9.99819	0.00000	5303.64000
