Time (s)   Thrust (N)   RPM  Input
0.00023	2.93124	4434.37500	7.00000
0.03331	2.99451	4480.51900	7.00000
0.06796	3.08578	4462.02500	7.00000
0.10265	3.14849	4533.22800	7.00000
0.13735	3.19761	4619.26400	7.00000
0.17205	3.25129	4628.90600	7.00000
0.20675	3.28116	4634.76500	7.00000
0.24144	3.29429	4666.99200	7.00000
0.27615	3.32468	4646.99000	7.00000
0.31084	3.34116	4644.09700	7.00000
0.34556	3.34908	4658.56500	7.00000
0.38026	3.34564	4684.60600	7.00000
0.41495	3.35850	4675.92600	7.00000
0.44964	3.35575	4644.62600	7.00000
0.48434	3.35663	4684.60600	7.00000
0.51905	3.35891	4696.18000	7.00000
0.55376	3.37328	4722.22200	7.00000
0.58846	3.36500	4699.07400	7.00000
0.62317	3.38371	4696.18000	7.00000
0.65787	3.37527	4670.35000	7.00000
0.69257	3.37884	4704.86100	7.00000
0.72727	3.38043	4707.75500	7.00000
0.76199	3.37524	4670.35000	7.00000
0.79667	3.38309	4704.86100	7.00000
0.83137	3.38088	4676.06700	7.00000
0.86607	3.38251	4701.96700	7.00000
0.90079	3.37741	4707.75500	7.00000
0.97905	3.37936	4736.69000	7.00000
1.01370	3.38052	4707.75500	7.00000
1.04846	3.37457	4707.75500	7.00000
1.08315	3.37661	4678.92500	7.00000
1.11787	3.37631	4704.86100	7.00000
1.15256	3.37890	4710.64800	7.00000
1.18726	3.37277	4678.92500	7.00000
1.22197	3.37894	4713.54100	7.00000
1.25667	3.38003	4684.64100	7.00000
1.29136	3.38463	4713.54100	7.00000
1.32607	3.37377	4713.54100	7.00000
1.36076	3.37634	4687.50000	7.00000
1.39547	3.38321	4710.64800	7.00000
1.43016	3.38401	4650.34300	7.00000
1.46487	3.37945	4678.92500	7.00000
1.49957	3.38915	4704.86100	7.00000
1.53427	3.37823	4678.92500	7.00000
1.56897	3.38038	4701.96700	7.00000
1.60367	3.37756	4704.86100	7.00000
1.63837	3.38355	4730.90300	7.00000
1.67307	3.39444	4701.96700	7.00000
1.70778	3.38783	4696.18000	7.00000
1.74249	3.39073	4673.20900	7.00000
1.77718	3.38942	4701.96700	7.00000
1.81187	3.38816	4699.07400	7.00000
1.84658	3.39750	4678.92500	7.00000
1.88128	3.38901	4696.18000	7.00000
1.91597	3.39807	4673.20900	7.00000
1.95068	3.39288	4701.96700	7.00000
1.98538	3.39549	4699.07400	7.00000
2.02008	3.39719	4661.77600	7.00000
2.05478	3.39197	4699.07400	7.00000
2.08949	3.39722	4701.96700	7.00000
2.12419	3.38513	4725.11500	7.00000
2.15889	3.39573	4701.96700	7.00000
2.19358	3.39554	4696.18000	7.00000
2.22832	3.39224	4722.22200	7.00000
2.26299	3.39360	4699.07400	7.00000
2.29769	3.39233	4664.63400	7.00000
2.33240	3.39225	4690.39300	7.00000
2.36709	3.39081	4690.39300	7.00000
2.40179	3.39269	4719.32900	7.00000
2.43650	3.40073	4693.28700	7.00000
2.47121	3.40009	4696.18000	7.00000
2.50590	3.39858	4661.77600	7.00000
2.54060	3.40049	4690.39300	7.00000
2.57530	3.39401	4690.39300	7.00000
2.61001	3.39787	4696.18000	7.00000
2.64470	3.39354	4678.81900	7.00000
2.72400	3.39965	4681.71300	7.00000
2.75872	3.39254	4713.54100	7.00000
2.79340	3.39933	4684.60600	7.00000
2.82810	3.39304	4650.34300	7.00000
2.86281	3.39255	4687.50000	7.00000
2.89750	3.39680	4687.50000	7.00000
2.93220	3.39004	4661.77600	7.00000
2.96689	3.38590	4749.02300	7.00000
3.00161	3.39109	4693.28700	7.00000
3.03630	3.38559	4728.00900	7.00000
3.07100	3.38323	4693.28700	7.00000
3.10570	3.38627	4699.07400	7.00000
3.14040	3.38492	4722.22200	7.00000
3.17512	3.38051	4704.86100	7.00000
3.20981	3.39366	4728.00900	7.00000
3.24452	3.38737	4701.96700	7.00000
3.27921	3.39056	4701.96700	7.00000
3.31392	3.39407	4667.49200	7.00000
3.34861	3.38643	4701.96700	7.00000
3.38332	3.38940	4701.96700	7.00000
3.41801	3.38607	4676.06700	7.00000
3.45271	3.38071	4699.07400	7.00000
3.48741	3.38179	4678.92500	7.00000
3.52212	3.37649	4701.96700	7.00000
3.55683	3.38179	4701.96700	7.00000
3.59152	3.38290	4673.20900	7.00000
3.62621	3.38068	4704.86100	7.00000
3.66092	3.38825	4713.54100	7.00000
3.69561	3.38031	4667.49200	7.00000
3.73032	3.38452	4704.86100	7.00000
3.76502	3.39291	4701.96700	7.00000
3.79972	3.38677	4676.06700	7.00000
3.83443	3.39305	4704.86100	7.00000
3.86914	3.38932	4678.92500	7.00000
3.90384	3.38848	4699.07400	7.00000
3.93852	3.40049	4696.18000	7.00000
3.97324	3.38751	4676.06700	7.00000
4.00793	3.39112	4701.96700	7.00000
4.04264	3.38998	4701.96700	7.00000
4.07734	3.39136	4667.49200	7.00000
4.11205	3.38644	4704.86100	7.00000
4.14673	3.38595	4701.96700	7.00000
4.18144	3.38747	4658.91700	7.00000
4.21613	3.38785	4699.07400	7.00000
4.25083	3.38007	4673.20900	7.00000
4.28554	3.38604	4699.07400	7.00000
4.32024	3.38880	4701.96700	7.00000
4.35494	3.39443	4728.00900	7.00000
4.38963	3.38428	4699.07400	7.00000
4.42435	3.38650	4701.96700	7.00000
4.45905	3.38358	4728.00900	7.00000
4.49376	3.38065	4701.96700	7.00000
4.52845	3.38577	4733.79600	7.00000
4.56315	3.39054	4701.96700	7.00000
4.59785	3.38614	4704.86100	7.00000
4.63255	3.38492	4733.79600	7.00000
4.66727	3.39461	4701.96700	7.00000
4.70196	3.39181	4699.07400	7.00000
4.73666	3.38462	4728.00900	7.00000
4.77137	3.38437	4701.96700	7.00000
4.80606	3.38403	4701.96700	7.00000
4.84077	3.38508	4733.79600	7.00000
4.87547	3.37905	4701.96700	7.00000
4.91017	3.38234	4730.90300	7.00000
4.94487	3.37587	4710.64800	7.00000
4.97957	3.38055	4710.64800	7.00000
5.01469	3.37141	4687.50000	6.67500
5.04904	3.28897	4634.09800	6.67500
5.08372	3.14337	4550.52800	6.67500
5.11839	3.03566	4504.87000	6.67500
5.15309	2.95663	4409.95000	6.67500
5.18778	2.90726	4371.87500	6.67500
5.22249	2.84807	4312.50000	6.67500
5.25720	2.81242	4312.50000	6.67500
5.29190	2.78380	4307.43200	6.67500
5.32659	2.76353	4275.76000	6.67500
5.36129	2.74680	4256.75700	6.67500
5.39599	2.73703	4247.25500	6.67500
5.43070	2.72639	4263.09100	6.67500
5.46539	2.72124	4225.08400	6.67500
5.50010	2.71012	4225.08400	6.67500
5.53480	2.70206	4215.58200	6.67500
5.56952	2.69877	4273.33000	6.67500
5.60421	2.70125	4240.92100	6.67500
5.63892	2.70411	4212.41500	6.67500
5.67361	2.69955	4266.90900	6.67500
5.70832	2.70194	4266.90900	6.67500
5.74303	2.69384	4206.08100	6.67500
5.77773	2.69610	4295.80500	6.67500
5.81243	2.69322	4263.69800	6.67500
5.84712	2.70297	4209.24800	6.67500
5.88183	2.70769	4266.90900	6.67500
5.91653	2.69289	4266.90900	6.67500
5.95123	2.69707	4234.58600	6.67500
5.98593	2.68545	4266.90900	6.67500
6.02063	2.69225	4266.90900	6.67500
6.05532	2.68956	4273.33000	6.67500
6.09004	2.68994	4209.24800	6.67500
6.12474	2.69437	4240.92100	6.67500
6.15943	2.69370	4273.33000	6.67500
6.19414	2.69513	4215.58200	6.67500
6.22883	2.69233	4212.41500	6.67500
6.26354	2.69355	4270.11900	6.67500
6.29824	2.68431	4240.92100	6.67500
6.33294	2.69854	4209.24800	6.67500
6.36764	2.70082	4215.58200	6.67500
6.40235	2.69902	4266.90900	6.67500
6.43705	2.69634	4266.90900	6.67500
6.47176	2.70718	4240.92100	6.67500
6.50644	2.69689	4266.90900	6.67500
6.54116	2.70092	4263.69800	6.67500
6.57585	2.68981	4215.58200	6.67500
6.61055	2.69513	4209.24800	6.67500
6.64526	2.68553	4240.92100	6.67500
6.67996	2.69046	4212.41500	6.67500
6.71466	2.69301	4215.58200	6.67500
6.74937	2.68604	4209.24800	6.67500
6.78408	2.68970	4273.33000	6.67500
6.81877	2.68364	4237.75300	6.67500
6.85346	2.68541	4215.58200	6.67500
6.88816	2.68497	4218.75000	6.67500
6.92286	2.70857	4225.08400	6.67500
7.00120	2.68190	4221.91700	6.67500
7.03590	2.69717	4225.08400	6.67500
7.07061	2.69110	4190.62500	6.67500
7.10530	2.69319	4282.96200	6.67500
7.14000	2.68988	4282.96200	6.67500
7.17470	2.68326	4279.75200	6.67500
7.20940	2.68501	4282.96200	6.67500
7.24413	2.68124	4259.92400	6.67500
7.27882	2.67928	4289.38400	6.67500
7.31352	2.69327	4225.08400	6.67500
7.34823	2.68785	4225.08400	6.67500
7.38291	2.68242	4221.91700	6.67500
7.41761	2.69303	4244.08800	6.67500
7.45232	2.68375	4228.25200	6.67500
7.48702	2.68355	4279.75200	6.67500
7.52171	2.69074	4279.75200	6.67500
7.55641	2.69121	4250.42200	6.67500
7.59111	2.69421	4225.08400	6.67500
7.62583	2.68837	4225.08400	6.67500
7.66052	2.69804	4221.91700	6.67500
7.69522	2.69799	4221.91700	6.67500
7.72993	2.69183	4200.00000	6.67500
7.76463	2.68963	4276.54100	6.67500
7.79933	2.69319	4279.75200	6.67500
7.83403	2.69812	4276.54100	6.67500
7.86874	2.70602	4215.58200	6.67500
7.90344	2.71610	4244.08800	6.67500
7.93814	2.71464	4266.90900	6.67500
7.97284	2.70611	4263.69800	6.67500
8.00755	2.70207	4206.08100	6.67500
8.04225	2.71092	4270.11900	6.67500
8.07695	2.71053	4270.11900	6.67500
8.15522	2.70322	4263.69800	6.67500
8.18992	2.70219	4266.90900	6.67500
8.22464	2.70145	4270.11900	6.67500
8.25932	2.70382	4206.08100	6.67500
8.29404	2.71414	4263.69800	6.67500
8.32874	2.71098	4266.90900	6.67500
8.36342	2.71394	4266.90900	6.67500
8.39814	2.71756	4260.48800	6.67500
8.43283	2.71555	4202.91300	6.67500
8.46754	2.71814	4263.69800	6.67500
8.50224	2.71032	4260.48800	6.67500
8.53693	2.70561	4263.69800	6.67500
8.57164	2.71136	4260.48800	6.67500
8.60635	2.71553	4257.27700	6.67500
8.64104	2.71882	4260.48800	6.67500
8.67574	2.70644	4206.08100	6.67500
8.71044	2.70191	4260.48800	6.67500
8.74515	2.70548	4202.91300	6.67500
8.77985	2.71749	4260.48800	6.67500
8.81455	2.71610	4196.57900	6.67500
8.84925	2.71026	4257.27700	6.67500
8.88394	2.69869	4199.74600	6.67500
8.91866	2.70467	4257.27700	6.67500
8.95335	2.70598	4199.74600	6.67500
8.98806	2.70025	4254.06600	6.67500
9.02275	2.70516	4199.74600	6.67500
9.05744	2.70260	4260.48800	6.67500
9.09216	2.70140	4250.85600	6.67500
9.12686	2.70715	4254.06600	6.67500
9.16157	2.71377	4254.06600	6.67500
9.19627	2.71603	4254.06600	6.67500
9.23096	2.70364	4270.11900	6.67500
9.26569	2.70241	4193.41200	6.67500
9.30037	2.71129	4254.06600	6.67500
9.33507	2.70682	4196.57900	6.67500
9.36976	2.71059	4250.85600	6.67500
9.40448	2.71322	4215.58200	6.67500
9.43919	2.71197	4257.27700	6.67500
9.47388	2.71683	4247.64500	6.67500
9.50858	2.72020	4250.85600	6.67500
9.54327	2.71994	4247.64500	6.67500
9.57799	2.71301	4212.41500	6.67500
9.61268	2.72435	4254.06600	6.67500
9.64738	2.71801	4190.24400	6.67500
9.68209	2.71873	4241.22400	6.67500
9.71679	2.71476	4247.64500	6.67500
9.75149	2.71064	4212.41500	6.67500
9.78618	2.71258	4247.64500	6.67500
9.82089	2.70676	4250.85600	6.67500
9.85559	2.70836	4254.06600	6.67500
9.89028	2.71248	4247.64500	6.67500
9.92499	2.71653	4221.91700	6.67500
9.95969	2.72962	4254.06600	6.67500
