Time (s)   Thrust (N)   RPM
0.00029	0.00000	4162.50000
0.00419	0.00000	4167.72900
0.00811	0.00000	4167.72900
0.01196	0.00000	4167.72900
0.01580	0.00000	4167.72900
0.01964	0.00000	4167.72900
0.02351	0.00000	4105.49500
0.02735	0.00000	4105.49500
0.03119	0.00000	4105.49500
0.03505	0.00000	4105.49500
0.03888	0.00000	4105.49500
0.04271	0.00000	3945.31200
0.04653	0.00000	3945.31200
0.05036	0.00000	3945.31200
0.05419	0.00000	3945.31200
0.05802	0.00000	3945.31200
0.06184	0.00000	3793.83900
0.06567	0.00000	3793.83900
0.06948	0.00000	3793.83900
0.07330	0.00000	3793.83900
0.07713	0.00000	3645.83300
0.08097	0.00000	3645.83300
0.08479	0.00000	3645.83300
0.08862	0.00000	3645.83300
0.09246	0.00000	3645.83300
0.09628	0.00000	3529.82900
0.10009	0.00000	3529.82900
0.10391	0.00000	3529.82900
0.10773	0.00000	3529.82900
0.11155	0.00000	3401.16200
0.11537	0.00000	3401.16200
0.11919	0.00000	3401.16200
0.12302	0.00000	3401.16200
0.12685	0.00000	3401.16200
0.13067	0.00000	3307.08600
0.13449	0.00000	3307.08600
0.13834	0.00000	3307.08600
0.14223	0.00000	3307.08600
0.14607	0.00000	3216.98500
0.14990	0.00000	3216.98500
0.15372	0.00000	3216.98500
0.15755	0.00000	3216.98500
0.16137	0.00000	3105.94500
0.16520	0.00000	3105.94500
0.16902	0.00000	3105.94500
0.17285	0.00000	3105.94500
0.17669	0.00000	3037.19000
0.18051	0.00000	3037.19000
0.18433	0.00000	3037.19000
0.18816	0.00000	3037.19000
0.19198	0.00000	2949.21800
0.19580	0.00000	2949.21800
0.19963	0.00000	2949.21800
0.20345	0.00000	2949.21800
0.20726	0.00000	2867.64700
0.21109	0.00000	2867.64700
0.21491	0.00000	2867.64700
0.21874	0.00000	2867.64700
0.22257	0.00000	2812.50000
0.22641	0.00000	2812.50000
0.23023	0.00000	2812.50000
0.23406	0.00000	2812.50000
0.23789	0.00000	2771.73900
0.24172	0.00000	2771.73900
0.24554	0.00000	2771.73900
0.24937	0.00000	2771.73900
0.25320	0.00000	2713.81500
0.25703	0.00000	2713.81500
0.26087	0.00000	2713.81500
0.26469	0.00000	2713.81500
0.26852	0.00000	2643.91400
0.27235	0.00000	2643.91400
0.27618	0.00000	2643.91400
0.28000	0.00000	2643.91400
0.28384	0.00000	2596.79200
0.28767	0.00000	2596.79200
0.29150	0.00000	2596.79200
0.29532	0.00000	2596.79200
0.29915	0.00000	2565.56900
0.30297	0.00000	2565.56900
0.30680	0.00000	2565.56900
0.31063	0.00000	2565.56900
0.31446	0.00000	2498.60500
0.31828	0.00000	2498.60500
0.32209	0.00000	2498.60500
0.32591	0.00000	2498.60500
0.32974	0.00000	2470.43900
0.33356	0.00000	2470.43900
0.33739	0.00000	2470.43900
0.34121	0.00000	2470.43900
0.34504	0.00000	2428.97700
0.34887	0.00000	2428.97700
0.35269	0.00000	2428.97700
0.35651	0.00000	2391.05500
0.36034	0.00000	2391.05500
0.36416	0.00000	2391.05500
0.36798	0.00000	2391.05500
0.37180	0.00000	2365.25200
0.37563	0.00000	2365.25200
0.37945	0.00000	2365.25200
0.38326	0.00000	2365.25200
0.38708	0.00000	2317.94700
0.39090	0.00000	2317.94700
0.39473	0.00000	2317.94700
0.39855	0.00000	2317.94700
0.40236	0.00000	2296.00600
0.40619	0.00000	2296.00600
0.41001	0.00000	2296.00600
0.41384	0.00000	2269.27600
0.41766	0.00000	2269.27600
0.42149	0.00000	2269.27600
0.42531	0.00000	2269.27600
0.42913	0.00000	2226.56200
0.43296	0.00000	2226.56200
0.43679	0.00000	2226.56200
0.44061	0.00000	2226.56200
0.44439	0.00000	2207.94300
0.44821	0.00000	2207.94300
0.45204	0.00000	2207.94300
0.45587	0.00000	2188.97400
0.45969	0.00000	2188.97400
0.46351	0.00000	2188.97400
0.46735	0.00000	2188.97400
0.47117	0.00000	2150.99300
0.47499	0.00000	2150.99300
0.47881	0.00000	2150.99300
0.48264	0.00000	2150.99300
0.48646	0.00000	2144.75200
0.49029	0.00000	2144.75200
0.49411	0.00000	2144.75200
0.49793	0.00000	2125.00000
0.50178	0.00000	2125.00000
0.50560	0.00000	2125.00000
0.50941	0.00000	2125.00000
0.51324	0.00000	2111.60700
0.51706	0.00000	2111.60700
0.52088	0.00000	2111.60700
0.52469	0.00000	2111.60700
0.52851	0.00000	2075.89200
0.53234	0.00000	2075.89200
0.53616	0.00000	2075.89200
0.53998	0.00000	2068.81000
0.54381	0.00000	2068.81000
0.54763	0.00000	2068.81000
0.55145	0.00000	2068.81000
0.55526	0.00000	2040.17800
0.55908	0.00000	2040.17800
0.56290	0.00000	2040.17800
0.56672	0.00000	2043.38600
0.57055	0.00000	2043.38600
0.57438	0.00000	2043.38600
0.57820	0.00000	2043.38600
0.58202	0.00000	2019.23000
0.58584	0.00000	2019.23000
0.58966	0.00000	2019.23000
0.59349	0.00000	2006.97800
0.59730	0.00000	2006.97800
0.60113	0.00000	2006.97800
0.60494	0.00000	2006.97800
0.60876	0.00000	1988.77400
0.61258	0.00000	1988.77400
0.61641	0.00000	1988.77400
0.62023	0.00000	1988.77400
0.62406	0.00000	1965.14400
0.62788	0.00000	1965.14400
0.63171	0.00000	1965.14400
0.63553	0.00000	1956.91700
0.63936	0.00000	1956.91700
0.64319	0.00000	1956.91700
0.64701	0.00000	1956.91700
0.65084	0.00000	1952.36600
0.65467	0.00000	1952.36600
0.65849	0.00000	1952.36600
0.66232	0.00000	1943.93300
0.66614	0.00000	1943.93300
0.66996	0.00000	1943.93300
0.67378	0.00000	1943.93300
0.67760	0.00000	1920.50900
0.68143	0.00000	1920.50900
0.68524	0.00000	1920.50900
0.68907	0.00000	1916.36000
0.69290	0.00000	1916.36000
0.69671	0.00000	1916.36000
0.70053	0.00000	1916.36000
0.70435	0.00000	1916.36000
0.70817	0.00000	1916.36000
0.71200	0.00000	1916.36000
0.71582	0.00000	1888.78600
0.71964	0.00000	1888.78600
0.72346	0.00000	1888.78600
0.72726	0.00000	1888.78600
0.73108	0.00000	1898.20500
0.73490	0.00000	1898.20500
0.73872	0.00000	1898.20500
0.74254	0.00000	1888.92300
0.74636	0.00000	1888.92300
0.75019	0.00000	1888.92300
0.75401	0.00000	1888.92300
0.75783	0.00000	1875.00000
0.76165	0.00000	1875.00000
0.76547	0.00000	1875.00000
0.76929	0.00000	1861.07600
0.77311	0.00000	1861.07600
0.77693	0.00000	1861.07600
0.78075	0.00000	1861.07600
0.78458	0.00000	1856.43500
0.78840	0.00000	1856.43500
0.79223	0.00000	1856.43500
0.79606	0.00000	1842.51200
0.79988	0.00000	1842.51200
0.80371	0.00000	1842.51200
0.80754	0.00000	1842.51200
0.81136	0.00000	1837.87100
0.81518	0.00000	1837.87100
0.81901	0.00000	1837.87100
0.82283	0.00000	1823.94800
0.82665	0.00000	1823.94800
0.83047	0.00000	1823.94800
0.83430	0.00000	1823.94800
0.83813	0.00000	1837.50000
0.84196	0.00000	1837.50000
0.84579	0.00000	1837.50000
0.84961	0.00000	1832.81200
0.85343	0.00000	1832.81200
0.85726	0.00000	1832.81200
0.86108	0.00000	1832.81200
0.86491	0.00000	1805.38300
0.86873	0.00000	1805.38300
0.87256	0.00000	1805.38300
0.87639	0.00000	1814.06200
0.88022	0.00000	1814.06200
0.88406	0.00000	1814.06200
0.88790	0.00000	1814.06200
0.89172	0.00000	1791.46000
0.89554	0.00000	1791.46000
0.89936	0.00000	1791.46000
0.90319	0.00000	1800.00000
0.90701	0.00000	1800.00000
0.91083	0.00000	1800.00000
0.91465	0.00000	1800.00000
0.91848	0.00000	1809.37500
0.92230	0.00000	1809.37500
0.92612	0.00000	1809.37500
0.92994	0.00000	1790.62500
0.93377	0.00000	1790.62500
0.93759	0.00000	1790.62500
0.94141	0.00000	1790.62500
0.94523	0.00000	1782.17800
0.94906	0.00000	1782.17800
0.95288	0.00000	1782.17800
0.95670	0.00000	1781.25000
0.96053	0.00000	1781.25000
0.96435	0.00000	1781.25000
0.96817	0.00000	1781.25000
0.97200	0.00000	1785.93700
0.97584	0.00000	1785.93700
0.97967	0.00000	1785.93700
0.98349	0.00000	1771.87500
0.98733	0.00000	1771.87500
0.99115	0.00000	1771.87500
0.99496	0.00000	1771.87500
0.99879	0.00000	1776.56200
1.00261	0.00000	1776.56200
1.00644	0.00000	1776.56200
1.01026	0.00000	1762.50000
1.01408	0.00000	1762.50000
1.01790	0.00000	1762.50000
1.02172	0.00000	1762.50000
1.02554	0.00000	1767.18700
1.02937	0.00000	1767.18700
1.03319	0.00000	1767.18700
1.03702	0.00000	1770.83300
1.04084	0.00000	1770.83300
1.04466	0.00000	1770.83300
1.04849	0.00000	1770.83300
1.05231	0.00000	1753.12500
1.05613	0.00000	1753.12500
1.05995	0.00000	1753.12500
1.06378	0.00000	1743.75000
1.06761	0.00000	1743.75000
1.07144	0.00000	1743.75000
1.07526	0.00000	1743.75000
1.07909	0.00000	1743.75000
1.08291	0.00000	1743.75000
1.08673	0.00000	1743.75000
1.09056	0.00000	1761.36300
1.09439	0.00000	1761.36300
1.09822	0.00000	1761.36300
1.10204	0.00000	1751.89400
1.10588	0.00000	1751.89400
1.10971	0.00000	1751.89400
1.11353	0.00000	1751.89400
1.11735	0.00000	1743.75000
1.12117	0.00000	1743.75000
1.12500	0.00000	1743.75000
1.12883	0.00000	1729.68700
1.13266	0.00000	1729.68700
1.13650	0.00000	1729.68700
1.14032	0.00000	1729.68700
1.14414	0.00000	1734.37500
1.14796	0.00000	1734.37500
1.15179	0.00000	1734.37500
1.15561	0.00000	1725.00000
1.15944	0.00000	1725.00000
1.16326	0.00000	1725.00000
1.16708	0.00000	1725.00000
1.17091	0.00000	1729.68700
1.17473	0.00000	1729.68700
1.17855	0.00000	1729.68700
1.18239	0.00000	1715.62500
1.18621	0.00000	1715.62500
1.19004	0.00000	1715.62500
1.19386	0.00000	1732.95400
1.19768	0.00000	1732.95400
1.20151	0.00000	1732.95400
1.20533	0.00000	1732.95400
1.20915	0.00000	1710.93700
1.21298	0.00000	1710.93700
1.21681	0.00000	1710.93700
1.22063	0.00000	1732.95400
1.22445	0.00000	1732.95400
1.22827	0.00000	1732.95400
1.23209	0.00000	1732.95400
1.23591	0.00000	1720.31200
1.23973	0.00000	1720.31200
1.24355	0.00000	1720.31200
1.24737	0.00000	1723.48400
1.25120	0.00000	1723.48400
1.25502	0.00000	1723.48400
1.25884	0.00000	1723.48400
1.26266	0.00000	1715.62500
1.26648	0.00000	1715.62500
1.27032	0.00000	1715.62500
1.27414	0.00000	1723.48400
1.27803	0.00000	1723.48400
1.28189	0.00000	1723.48400
1.28572	0.00000	1723.48400
1.28954	0.00000	1706.25000
1.29338	0.00000	1706.25000
1.29719	0.00000	1706.25000
1.30101	0.00000	1718.75000
1.30483	0.00000	1718.75000
1.30865	0.00000	1718.75000
1.31248	0.00000	1709.28000
1.31631	0.00000	1709.28000
1.32013	0.00000	1709.28000
1.32395	0.00000	1709.28000
1.32776	0.00000	1701.56200
1.33159	0.00000	1701.56200
1.33541	0.00000	1701.56200
1.33923	0.00000	1714.01500
1.34306	0.00000	1714.01500
1.34688	0.00000	1714.01500
1.35071	0.00000	1714.01500
1.35454	0.00000	1718.75000
1.35836	0.00000	1718.75000
1.36218	0.00000	1718.75000
1.36601	0.00000	1714.01500
1.36984	0.00000	1714.01500
1.37367	0.00000	1714.01500
1.37749	0.00000	1714.01500
1.38131	0.00000	1701.56200
1.38514	0.00000	1701.56200
1.38896	0.00000	1701.56200
1.39278	0.00000	1704.54500
1.39661	0.00000	1704.54500
1.40043	0.00000	1704.54500
1.40425	0.00000	1709.28000
1.40807	0.00000	1709.28000
1.41191	0.00000	1709.28000
1.41573	0.00000	1709.28000
1.41955	0.00000	1687.50000
1.42337	0.00000	1687.50000
1.42720	0.00000	1687.50000
1.43102	0.00000	1704.54500
1.43485	0.00000	1704.54500
1.43868	0.00000	1704.54500
1.44249	0.00000	1704.54500
1.44632	0.00000	1696.87500
1.45014	0.00000	1696.87500
1.45397	0.00000	1696.87500
1.45779	0.00000	1699.81000
1.46162	0.00000	1699.81000
1.46544	0.00000	1699.81000
1.46926	0.00000	1699.81000
1.47308	0.00000	1696.87500
1.47691	0.00000	1696.87500
1.48072	0.00000	1696.87500
1.48454	0.00000	1699.81000
1.48836	0.00000	1699.81000
1.49218	0.00000	1699.81000
1.49601	0.00000	1699.81000
1.49983	0.00000	1704.54500
1.50365	0.00000	1704.54500
1.50747	0.00000	1704.54500
1.51126	0.00000	1699.81000
1.51509	0.00000	1699.81000
1.51891	0.00000	1699.81000
1.52273	0.00000	1699.81000
1.52655	0.00000	1699.81000
1.53037	0.00000	1699.81000
1.53420	0.00000	1699.81000
1.53802	0.00000	1692.18700
1.54184	0.00000	1692.18700
1.54566	0.00000	1692.18700
1.54948	0.00000	1695.07500
1.55332	0.00000	1695.07500
1.55714	0.00000	1695.07500
1.56096	0.00000	1695.07500
1.56478	0.00000	1692.18700
1.56860	0.00000	1692.18700
1.57243	0.00000	1692.18700
1.57625	0.00000	1695.07500
1.58008	0.00000	1695.07500
1.58392	0.00000	1695.07500
1.58774	0.00000	1695.07500
1.59156	0.00000	1704.54500
1.59538	0.00000	1704.54500
1.59920	0.00000	1704.54500
1.60302	0.00000	1695.07500
1.60684	0.00000	1695.07500
1.61066	0.00000	1695.07500
1.61449	0.00000	1695.07500
1.61832	0.00000	1695.07500
1.62214	0.00000	1695.07500
1.62597	0.00000	1695.07500
1.62979	0.00000	1695.07500
1.63361	0.00000	1695.07500
1.63743	0.00000	1695.07500
1.64125	0.00000	1695.07500
1.64508	0.00000	1695.07500
1.64891	0.00000	1695.07500
1.65274	0.00000	1695.07500
1.65655	0.00000	1687.50000
1.66038	0.00000	1687.50000
1.66420	0.00000	1687.50000
1.66802	0.00000	1690.34000
1.67184	0.00000	1690.34000
1.67566	0.00000	1690.34000
1.67948	0.00000	1690.34000
1.68326	0.00000	1687.50000
1.68709	0.00000	1687.50000
1.69094	0.00000	1687.50000
1.69477	0.00000	1690.34000
1.69860	0.00000	1690.34000
1.70242	0.00000	1690.34000
1.70624	0.00000	1685.60600
1.71008	0.00000	1685.60600
1.71391	0.00000	1685.60600
1.71773	0.00000	1685.60600
1.72156	0.00000	1699.81000
1.72538	0.00000	1699.81000
1.72920	0.00000	1699.81000
1.73303	0.00000	1685.60600
1.73685	0.00000	1685.60600
1.74068	0.00000	1685.60600
1.74450	0.00000	1685.60600
1.74833	0.00000	1682.81200
1.75215	0.00000	1682.81200
1.75598	0.00000	1682.81200
1.75980	0.00000	1690.34000
1.76362	0.00000	1690.34000
1.76745	0.00000	1690.34000
1.77126	0.00000	1690.34000
1.77508	0.00000	1678.12500
1.77891	0.00000	1678.12500
1.78273	0.00000	1678.12500
1.78655	0.00000	1690.34000
1.79037	0.00000	1690.34000
1.79419	0.00000	1690.34000
1.79801	0.00000	1690.34000
1.80183	0.00000	1690.34000
1.80565	0.00000	1690.34000
1.80947	0.00000	1690.34000
1.81330	0.00000	1690.34000
1.81711	0.00000	1690.34000
1.82093	0.00000	1690.34000
1.82477	0.00000	1685.60600
1.82860	0.00000	1685.60600
1.83242	0.00000	1685.60600
1.83624	0.00000	1685.60600
1.84006	0.00000	1682.81200
1.84389	0.00000	1682.81200
1.84771	0.00000	1682.81200
1.85153	0.00000	1685.60600
1.85536	0.00000	1685.60600
1.85918	0.00000	1685.60600
1.86300	0.00000	1685.60600
1.86682	0.00000	1682.81200
1.87064	0.00000	1682.81200
1.87445	0.00000	1682.81200
1.87828	0.00000	1685.60600
1.88210	0.00000	1685.60600
1.88592	0.00000	1685.60600
1.88974	0.00000	1690.34000
1.89357	0.00000	1690.34000
1.89738	0.00000	1690.34000
1.90120	0.00000	1690.34000
1.90503	0.00000	1690.34000
1.90886	0.00000	1690.34000
1.91268	0.00000	1690.34000
1.91650	0.00000	1685.60600
1.92034	0.00000	1685.60600
1.92416	0.00000	1685.60600
1.92799	0.00000	1685.60600
1.93181	0.00000	1687.50000
1.93564	0.00000	1687.50000
1.93947	0.00000	1687.50000
1.94326	0.00000	1690.34000
1.94708	0.00000	1690.34000
1.95090	0.00000	1690.34000
1.95472	0.00000	1690.34000
1.95854	0.00000	1682.81200
1.96237	0.00000	1682.81200
1.96619	0.00000	1682.81200
1.97001	0.00000	1685.60600
1.97383	0.00000	1685.60600
1.97765	0.00000	1685.60600
1.98147	0.00000	1685.60600
1.98529	0.00000	1685.60600
1.98911	0.00000	1685.60600
1.99293	0.00000	1685.60600
1.99676	0.00000	1690.34000
2.00058	0.00000	1690.34000
2.00439	0.00000	1690.34000
2.00821	0.00000	1690.34000
2.01204	0.00000	1690.34000
2.01586	0.00000	1690.34000
2.01969	0.00000	1690.34000
2.02350	0.00000	1682.81200
2.02732	0.00000	1682.81200
2.03115	0.00000	1682.81200
2.03497	0.00000	1685.60600
2.03879	0.00000	1685.60600
2.04262	0.00000	1685.60600
2.04645	0.00000	1685.60600
2.05027	0.00000	1682.81200
2.05409	0.00000	1682.81200
2.05791	0.00000	1682.81200
2.06173	0.00000	1685.60600
2.06556	0.00000	1685.60600
2.06938	0.00000	1685.60600
2.07320	0.00000	1685.60600
2.07702	0.00000	1695.07500
2.08084	0.00000	1695.07500
2.08466	0.00000	1695.07500
2.08848	0.00000	1685.60600
2.09231	0.00000	1685.60600
2.09613	0.00000	1685.60600
2.09995	0.00000	1680.87100
2.10378	0.00000	1680.87100
2.10761	0.00000	1680.87100
2.11143	0.00000	1680.87100
2.11526	0.00000	1678.12500
2.11908	0.00000	1678.12500
2.12290	0.00000	1678.12500
2.12672	0.00000	1685.60600
2.13054	0.00000	1685.60600
2.13436	0.00000	1685.60600
2.13819	0.00000	1685.60600
2.14201	0.00000	1682.81200
2.14583	0.00000	1682.81200
2.14965	0.00000	1682.81200
2.15347	0.00000	1685.60600
2.15730	0.00000	1685.60600
2.16111	0.00000	1685.60600
2.16495	0.00000	1685.60600
2.16877	0.00000	1690.34000
2.17259	0.00000	1690.34000
2.17641	0.00000	1690.34000
2.18023	0.00000	1685.60600
2.18405	0.00000	1685.60600
2.18787	0.00000	1685.60600
2.19169	0.00000	1685.60600
2.19553	0.00000	1685.60600
2.19937	0.00000	1685.60600
2.20319	0.00000	1685.60600
2.20701	0.00000	1673.43700
2.21084	0.00000	1673.43700
2.21466	0.00000	1673.43700
2.21849	0.00000	1685.60600
2.22232	0.00000	1685.60600
2.22614	0.00000	1685.60600
2.22996	0.00000	1685.60600
2.23379	0.00000	1678.12500
2.23761	0.00000	1678.12500
2.24143	0.00000	1678.12500
2.24525	0.00000	1685.60600
2.24909	0.00000	1685.60600
2.25291	0.00000	1685.60600
2.25674	0.00000	1685.60600
2.26057	0.00000	1695.07500
2.26440	0.00000	1695.07500
2.26828	0.00000	1695.07500
2.27211	0.00000	1685.60600
2.27594	0.00000	1685.60600
2.27977	0.00000	1685.60600
2.28359	0.00000	1685.60600
2.28742	0.00000	1685.60600
2.29125	0.00000	1685.60600
2.29508	0.00000	1685.60600
2.29892	0.00000	1678.12500
2.30274	0.00000	1678.12500
2.30655	0.00000	1678.12500
2.31038	0.00000	1680.87100
2.31420	0.00000	1680.87100
2.31802	0.00000	1680.87100
2.32184	0.00000	1680.87100
2.32566	0.00000	1695.07500
2.32949	0.00000	1695.07500
2.33331	0.00000	1695.07500
2.33713	0.00000	1685.60600
2.34096	0.00000	1685.60600
2.34478	0.00000	1685.60600
2.34860	0.00000	1685.60600
2.35242	0.00000	1685.60600
2.35624	0.00000	1685.60600
2.36006	0.00000	1685.60600
2.36388	0.00000	1707.58900
2.36771	0.00000	1707.58900
2.37154	0.00000	1707.58900
2.37536	0.00000	1698.02300
2.37918	0.00000	1698.02300
2.38300	0.00000	1698.02300
2.38682	0.00000	1698.02300
2.39064	0.00000	1695.07500
2.39446	0.00000	1695.07500
2.39829	0.00000	1695.07500
2.40211	0.00000	1702.80600
2.40593	0.00000	1702.80600
2.40976	0.00000	1702.80600
2.41358	0.00000	1702.80600
2.41741	0.00000	1690.34000
2.42123	0.00000	1690.34000
2.42506	0.00000	1690.34000
2.42889	0.00000	1685.60600
2.43270	0.00000	1685.60600
2.43653	0.00000	1685.60600
2.44035	0.00000	1698.02300
2.44417	0.00000	1698.02300
2.44800	0.00000	1698.02300
2.45182	0.00000	1698.02300
2.45564	0.00000	1685.60600
2.45948	0.00000	1685.60600
2.46326	0.00000	1685.60600
2.46708	0.00000	1690.34000
2.47090	0.00000	1690.34000
2.47472	0.00000	1690.34000
2.47854	0.00000	1690.34000
2.48236	0.00000	1699.81000
2.48619	0.00000	1699.81000
2.49003	0.00000	1699.81000
2.49385	0.00000	1685.60600
2.49768	0.00000	1685.60600
2.50150	0.00000	1685.60600
2.50533	0.00000	1685.60600
2.50915	0.00000	1699.81000
2.51297	0.00000	1699.81000
2.51680	0.00000	1699.81000
2.52062	0.00000	1685.60600
2.52444	0.00000	1685.60600
2.52827	0.00000	1685.60600
2.53209	0.00000	1685.60600
2.53591	0.00000	1685.60600
2.53972	0.00000	1685.60600
2.54354	0.00000	1685.60600
2.54737	0.00000	1685.60600
2.55120	0.00000	1685.60600
2.55501	0.00000	1685.60600
2.55883	0.00000	1680.87100
2.56266	0.00000	1680.87100
2.56648	0.00000	1680.87100
2.57032	0.00000	1680.87100
2.57414	0.00000	1678.12500
2.57796	0.00000	1678.12500
2.58178	0.00000	1678.12500
2.58561	0.00000	1680.87100
2.58943	0.00000	1680.87100
2.59325	0.00000	1680.87100
2.59708	0.00000	1680.87100
2.60089	0.00000	1678.12500
2.60471	0.00000	1678.12500
2.60853	0.00000	1678.12500
2.61236	0.00000	1685.60600
2.61617	0.00000	1685.60600
2.61999	0.00000	1685.60600
2.62382	0.00000	1680.87100
2.62764	0.00000	1680.87100
2.63146	0.00000	1680.87100
2.63526	0.00000	1680.87100
2.63908	0.00000	1680.87100
2.64291	0.00000	1680.87100
2.64673	0.00000	1680.87100
2.65056	0.00000	1685.60600
2.65437	0.00000	1685.60600
2.65819	0.00000	1685.60600
2.66201	0.00000	1685.60600
2.66584	0.00000	1678.12500
2.66966	0.00000	1678.12500
2.67348	0.00000	1678.12500
2.67731	0.00000	1685.60600
2.68113	0.00000	1685.60600
2.68496	0.00000	1685.60600
2.68878	0.00000	1685.60600
2.69260	0.00000	1695.07500
2.69642	0.00000	1695.07500
2.70023	0.00000	1695.07500
2.70405	0.00000	1685.60600
2.70787	0.00000	1685.60600
2.71169	0.00000	1685.60600
2.71552	0.00000	1685.60600
2.71934	0.00000	1685.60600
2.72316	0.00000	1685.60600
2.72699	0.00000	1685.60600
2.73081	0.00000	1685.60600
2.73464	0.00000	1685.60600
2.73846	0.00000	1685.60600
2.74228	0.00000	1698.02300
2.74611	0.00000	1698.02300
2.74993	0.00000	1698.02300
2.75375	0.00000	1698.02300
2.75757	0.00000	1695.07500
2.76139	0.00000	1695.07500
2.76522	0.00000	1695.07500
2.76905	0.00000	1698.02300
2.77287	0.00000	1698.02300
2.77669	0.00000	1698.02300
2.78050	0.00000	1698.02300
2.78433	0.00000	1695.07500
2.78815	0.00000	1695.07500
2.79197	0.00000	1695.07500
2.79579	0.00000	1685.60600
2.79961	0.00000	1685.60600
2.80344	0.00000	1685.60600
2.80726	0.00000	1702.80600
2.81108	0.00000	1702.80600
2.81491	0.00000	1702.80600
2.81874	0.00000	1702.80600
2.82257	0.00000	1685.60600
2.82640	0.00000	1685.60600
2.83023	0.00000	1685.60600
2.83405	0.00000	1680.87100
2.83788	0.00000	1680.87100
2.84170	0.00000	1680.87100
2.84552	0.00000	1680.87100
2.84935	0.00000	1673.43700
2.85317	0.00000	1673.43700
2.85699	0.00000	1673.43700
2.86081	0.00000	1685.60600
2.86463	0.00000	1685.60600
2.86845	0.00000	1685.60600
2.87227	0.00000	1685.60600
2.87608	0.00000	1673.43700
2.87990	0.00000	1673.43700
2.88372	0.00000	1673.43700
2.88754	0.00000	1685.60600
2.89136	0.00000	1685.60600
2.89518	0.00000	1685.60600
2.89900	0.00000	1680.87100
2.90282	0.00000	1680.87100
2.90664	0.00000	1680.87100
2.91046	0.00000	1680.87100
2.91428	0.00000	1680.87100
2.91810	0.00000	1680.87100
2.92192	0.00000	1680.87100
2.92575	0.00000	1685.60600
2.92956	0.00000	1685.60600
2.93339	0.00000	1685.60600
2.93720	0.00000	1685.60600
2.94102	0.00000	1678.12500
2.94484	0.00000	1678.12500
2.94866	0.00000	1678.12500
2.95248	0.00000	1676.13600
2.95630	0.00000	1676.13600
2.96012	0.00000	1676.13600
2.96395	0.00000	1676.13600
2.96776	0.00000	1699.81000
2.97159	0.00000	1699.81000
2.97541	0.00000	1699.81000
2.97923	0.00000	1685.60600
2.98306	0.00000	1685.60600
2.98687	0.00000	1685.60600
2.99069	0.00000	1685.60600
2.99451	0.00000	1685.60600
2.99833	0.00000	1685.60600
3.00216	0.00000	1685.60600
3.00598	0.00000	1702.80600
3.00981	0.00000	1702.80600
3.01363	0.00000	1702.80600
3.01745	0.00000	1680.87100
3.02127	0.00000	1680.87100
3.02509	0.00000	1680.87100
3.02891	0.00000	1680.87100
3.03274	0.00000	1695.07500
3.03657	0.00000	1695.07500
3.04039	0.00000	1695.07500
3.04421	0.00000	1698.02300
3.04803	0.00000	1698.02300
3.05185	0.00000	1698.02300
3.05567	0.00000	1698.02300
3.05949	0.00000	1695.07500
3.06331	0.00000	1695.07500
3.06713	0.00000	1695.07500
3.07095	0.00000	1680.87100
3.07477	0.00000	1680.87100
3.07859	0.00000	1680.87100
3.08241	0.00000	1680.87100
3.08623	0.00000	1685.60600
3.09005	0.00000	1685.60600
3.09388	0.00000	1685.60600
3.09770	0.00000	1685.60600
3.10152	0.00000	1685.60600
3.10534	0.00000	1685.60600
3.10917	0.00000	1685.60600
3.11300	0.00000	1685.60600
3.11682	0.00000	1685.60600
3.12064	0.00000	1685.60600
3.12447	0.00000	1695.07500
3.12828	0.00000	1695.07500
3.13211	0.00000	1695.07500
3.13594	0.00000	1680.87100
3.13976	0.00000	1680.87100
3.14358	0.00000	1680.87100
3.14740	0.00000	1680.87100
3.15122	0.00000	1678.12500
3.15505	0.00000	1678.12500
3.15887	0.00000	1678.12500
3.16269	0.00000	1680.87100
3.16651	0.00000	1680.87100
3.17034	0.00000	1680.87100
3.17416	0.00000	1680.87100
3.17798	0.00000	1685.60600
3.18180	0.00000	1685.60600
3.18563	0.00000	1685.60600
3.18945	0.00000	1680.87100
3.19327	0.00000	1680.87100
3.19709	0.00000	1680.87100
3.20091	0.00000	1680.87100
3.20474	0.00000	1680.87100
3.20856	0.00000	1680.87100
3.21238	0.00000	1680.87100
3.21621	0.00000	1678.12500
3.22003	0.00000	1678.12500
3.22385	0.00000	1678.12500
3.22768	0.00000	1680.87100
3.23150	0.00000	1680.87100
3.23532	0.00000	1680.87100
3.23914	0.00000	1680.87100
3.24296	0.00000	1695.07500
3.24678	0.00000	1695.07500
3.25060	0.00000	1695.07500
3.25442	0.00000	1685.60600
3.25825	0.00000	1685.60600
3.26207	0.00000	1685.60600
3.26589	0.00000	1685.60600
3.26972	0.00000	1685.60600
3.27353	0.00000	1685.60600
3.27735	0.00000	1685.60600
3.28118	0.00000	1702.80600
3.28501	0.00000	1702.80600
3.28884	0.00000	1702.80600
3.29267	0.00000	1680.87100
3.29650	0.00000	1680.87100
3.30032	0.00000	1680.87100
3.30414	0.00000	1680.87100
3.30796	0.00000	1695.07500
3.31179	0.00000	1695.07500
3.31561	0.00000	1695.07500
3.31943	0.00000	1698.02300
3.32325	0.00000	1698.02300
3.32708	0.00000	1698.02300
3.33090	0.00000	1698.02300
3.33472	0.00000	1690.34000
3.33854	0.00000	1690.34000
3.34236	0.00000	1690.34000
3.34618	0.00000	1680.87100
3.35000	0.00000	1680.87100
3.35382	0.00000	1680.87100
3.35764	0.00000	1680.87100
3.36146	0.00000	1685.60600
3.36528	0.00000	1685.60600
3.36911	0.00000	1685.60600
3.37293	0.00000	1680.87100
3.37675	0.00000	1680.87100
3.38057	0.00000	1680.87100
3.38439	0.00000	1680.87100
3.38821	0.00000	1680.87100
3.39204	0.00000	1680.87100
3.39585	0.00000	1680.87100
3.39967	0.00000	1673.43700
3.40350	0.00000	1673.43700
3.40731	0.00000	1673.43700
3.41113	0.00000	1680.87100
3.41496	0.00000	1680.87100
3.41878	0.00000	1680.87100
3.42260	0.00000	1680.87100
3.42642	0.00000	1673.43700
3.43024	0.00000	1673.43700
3.43406	0.00000	1673.43700
3.43789	0.00000	1680.87100
3.44170	0.00000	1680.87100
3.44552	0.00000	1680.87100
3.44934	0.00000	1680.87100
3.45316	0.00000	1680.87100
3.45698	0.00000	1680.87100
3.46080	0.00000	1680.87100
3.46462	0.00000	1702.80600
3.46844	0.00000	1702.80600
3.47227	0.00000	1702.80600
3.47609	0.00000	1680.87100
3.47992	0.00000	1680.87100
3.48374	0.00000	1680.87100
3.48755	0.00000	1680.87100
3.49138	0.00000	1685.60600
3.49520	0.00000	1685.60600
3.49904	0.00000	1685.60600
3.50286	0.00000	1698.02300
3.50668	0.00000	1698.02300
3.51051	0.00000	1698.02300
3.51434	0.00000	1698.02300
3.51816	0.00000	1695.07500
3.52198	0.00000	1695.07500
3.52580	0.00000	1695.07500
3.52963	0.00000	1702.80600
3.53345	0.00000	1702.80600
3.53727	0.00000	1702.80600
3.54109	0.00000	1702.80600
3.54491	0.00000	1680.87100
3.54873	0.00000	1680.87100
3.55255	0.00000	1680.87100
3.55637	0.00000	1680.87100
3.56020	0.00000	1680.87100
3.56402	0.00000	1680.87100
3.56784	0.00000	1680.87100
3.57167	0.00000	1680.87100
3.57548	0.00000	1680.87100
3.57931	0.00000	1680.87100
3.58314	0.00000	1673.43700
3.58696	0.00000	1673.43700
3.59078	0.00000	1673.43700
3.59460	0.00000	1680.87100
3.59842	0.00000	1680.87100
3.60224	0.00000	1680.87100
3.60606	0.00000	1680.87100
3.60988	0.00000	1678.12500
3.61370	0.00000	1678.12500
3.61752	0.00000	1678.12500
3.62135	0.00000	1685.60600
3.62517	0.00000	1685.60600
3.62900	0.00000	1685.60600
3.63282	0.00000	1685.60600
3.63664	0.00000	1685.60600
3.64046	0.00000	1685.60600
3.64428	0.00000	1685.60600
3.64810	0.00000	1685.60600
3.65192	0.00000	1685.60600
3.65575	0.00000	1685.60600
3.65958	0.00000	1680.87100
3.66340	0.00000	1680.87100
3.66722	0.00000	1680.87100
3.67105	0.00000	1680.87100
3.67487	0.00000	1695.07500
3.67870	0.00000	1695.07500
3.68252	0.00000	1695.07500
3.68634	0.00000	1685.60600
3.69016	0.00000	1685.60600
3.69399	0.00000	1685.60600
3.69782	0.00000	1685.60600
3.70164	0.00000	1690.34000
3.70546	0.00000	1690.34000
3.70929	0.00000	1690.34000
3.71310	0.00000	1685.60600
3.71692	0.00000	1685.60600
3.72075	0.00000	1685.60600
3.72457	0.00000	1685.60600
3.72839	0.00000	1685.60600
3.73222	0.00000	1685.60600
3.73604	0.00000	1685.60600
3.73986	0.00000	1698.02300
3.74368	0.00000	1698.02300
3.74750	0.00000	1698.02300
3.75132	0.00000	1698.02300
3.75515	0.00000	1698.02300
3.75896	0.00000	1698.02300
3.76278	0.00000	1698.02300
3.76660	0.00000	1690.34000
3.77042	0.00000	1690.34000
3.77424	0.00000	1690.34000
3.77806	0.00000	1676.13600
3.78188	0.00000	1676.13600
3.78570	0.00000	1676.13600
3.78952	0.00000	1676.13600
3.79334	0.00000	1678.12500
3.79716	0.00000	1678.12500
3.80099	0.00000	1678.12500
3.80481	0.00000	1676.13600
3.80864	0.00000	1676.13600
3.81247	0.00000	1676.13600
3.81630	0.00000	1676.13600
3.82011	0.00000	1685.60600
3.82393	0.00000	1685.60600
3.82775	0.00000	1685.60600
3.83158	0.00000	1680.87100
3.83541	0.00000	1680.87100
3.83923	0.00000	1680.87100
3.84306	0.00000	1676.13600
3.84689	0.00000	1676.13600
3.85071	0.00000	1676.13600
3.85453	0.00000	1676.13600
3.85835	0.00000	1678.12500
3.86217	0.00000	1678.12500
3.86599	0.00000	1678.12500
3.86983	0.00000	1680.87100
3.87365	0.00000	1680.87100
3.87747	0.00000	1680.87100
3.88130	0.00000	1680.87100
3.88512	0.00000	1690.34000
3.88895	0.00000	1690.34000
3.89277	0.00000	1690.34000
3.89659	0.00000	1698.02300
3.90041	0.00000	1698.02300
3.90423	0.00000	1698.02300
3.90805	0.00000	1676.13600
3.91187	0.00000	1676.13600
3.91569	0.00000	1676.13600
3.91951	0.00000	1676.13600
3.92333	0.00000	1680.87100
3.92716	0.00000	1680.87100
3.93097	0.00000	1680.87100
3.93480	0.00000	1676.13600
3.93863	0.00000	1676.13600
3.94245	0.00000	1676.13600
3.94627	0.00000	1676.13600
3.95009	0.00000	1673.43700
3.95391	0.00000	1673.43700
3.95773	0.00000	1673.43700
3.96156	0.00000	1680.87100
3.96538	0.00000	1680.87100
3.96920	0.00000	1680.87100
3.97303	0.00000	1680.87100
3.97684	0.00000	1668.75000
3.98067	0.00000	1668.75000
3.98449	0.00000	1668.75000
3.98831	0.00000	1676.13600
3.99213	0.00000	1676.13600
3.99595	0.00000	1676.13600
3.99977	0.00000	1685.60600
4.00359	0.00000	1685.60600
4.00742	0.00000	1685.60600
4.01124	0.00000	1685.60600
4.01506	0.00000	1680.87100
4.01888	0.00000	1680.87100
4.02271	0.00000	1680.87100
4.02652	0.00000	1676.13600
4.03035	0.00000	1676.13600
4.03416	0.00000	1676.13600
4.03800	0.00000	1676.13600
4.04181	0.00000	1690.34000
4.04563	0.00000	1690.34000
4.04945	0.00000	1690.34000
4.05327	0.00000	1698.02300
4.05709	0.00000	1698.02300
4.06091	0.00000	1698.02300
4.06473	0.00000	1698.02300
4.06855	0.00000	1695.07500
4.07237	0.00000	1695.07500
4.07619	0.00000	1695.07500
4.08003	0.00000	1698.02300
4.08385	0.00000	1698.02300
4.08767	0.00000	1698.02300
4.09150	0.00000	1698.02300
4.09532	0.00000	1698.02300
4.09915	0.00000	1698.02300
4.10297	0.00000	1698.02300
4.10680	0.00000	1680.87100
4.11062	0.00000	1680.87100
4.11444	0.00000	1680.87100
4.11827	0.00000	1680.87100
4.12209	0.00000	1680.87100
4.12591	0.00000	1680.87100
4.12973	0.00000	1680.87100
4.13355	0.00000	1673.43700
4.13737	0.00000	1673.43700
4.14120	0.00000	1673.43700
4.14502	0.00000	1680.87100
4.14884	0.00000	1680.87100
4.15266	0.00000	1680.87100
4.15648	0.00000	1680.87100
4.16030	0.00000	1673.43700
4.16413	0.00000	1673.43700
4.16795	0.00000	1673.43700
4.17177	0.00000	1676.13600
4.17559	0.00000	1676.13600
4.17941	0.00000	1676.13600
4.18323	0.00000	1680.87100
4.18707	0.00000	1680.87100
4.19089	0.00000	1680.87100
4.19471	0.00000	1680.87100
4.19854	0.00000	1698.02300
4.20237	0.00000	1698.02300
4.20619	0.00000	1698.02300
4.21002	0.00000	1680.87100
4.21384	0.00000	1680.87100
4.21766	0.00000	1680.87100
4.22149	0.00000	1680.87100
4.22531	0.00000	1695.07500
4.22913	0.00000	1695.07500
4.23295	0.00000	1695.07500
4.23677	0.00000	1693.23900
4.24060	0.00000	1693.23900
4.24439	0.00000	1693.23900
4.24821	0.00000	1693.23900
4.25203	0.00000	1690.34000
4.25585	0.00000	1690.34000
4.25968	0.00000	1690.34000
4.26351	0.00000	1676.13600
4.26734	0.00000	1676.13600
4.27117	0.00000	1676.13600
4.27499	0.00000	1676.13600
4.27881	0.00000	1676.13600
4.28263	0.00000	1676.13600
4.28645	0.00000	1676.13600
4.29027	0.00000	1685.60600
4.29410	0.00000	1685.60600
4.29792	0.00000	1685.60600
4.30174	0.00000	1676.13600
4.30557	0.00000	1676.13600
4.30939	0.00000	1676.13600
4.31321	0.00000	1676.13600
4.31703	0.00000	1673.43700
4.32087	0.00000	1673.43700
4.32468	0.00000	1673.43700
4.32851	0.00000	1680.87100
4.33233	0.00000	1680.87100
4.33615	0.00000	1680.87100
4.33997	0.00000	1680.87100
4.34379	0.00000	1690.34000
4.34762	0.00000	1690.34000
4.35144	0.00000	1690.34000
4.35526	0.00000	1698.02300
4.35908	0.00000	1698.02300
4.36291	0.00000	1698.02300
4.36673	0.00000	1676.13600
4.37056	0.00000	1676.13600
4.37438	0.00000	1676.13600
4.37821	0.00000	1676.13600
4.38204	0.00000	1680.87100
4.38587	0.00000	1680.87100
4.38969	0.00000	1680.87100
4.39351	0.00000	1702.80600
4.39733	0.00000	1702.80600
4.40115	0.00000	1702.80600
4.40498	0.00000	1702.80600
4.40881	0.00000	1695.07500
4.41263	0.00000	1695.07500
4.41645	0.00000	1695.07500
4.42027	0.00000	1680.87100
4.42409	0.00000	1680.87100
4.42791	0.00000	1680.87100
4.43173	0.00000	1680.87100
4.43556	0.00000	1690.34000
4.43938	0.00000	1690.34000
4.44320	0.00000	1690.34000
4.44703	0.00000	1680.87100
4.45085	0.00000	1680.87100
4.45468	0.00000	1680.87100
4.45850	0.00000	1680.87100
4.46232	0.00000	1680.87100
4.46615	0.00000	1680.87100
4.46997	0.00000	1680.87100
4.47379	0.00000	1685.60600
4.47761	0.00000	1685.60600
4.48144	0.00000	1685.60600
4.48527	0.00000	1676.13600
4.48910	0.00000	1676.13600
4.49292	0.00000	1676.13600
4.49675	0.00000	1676.13600
4.50058	0.00000	1678.12500
4.50439	0.00000	1678.12500
4.50822	0.00000	1678.12500
4.51203	0.00000	1685.60600
4.51586	0.00000	1685.60600
4.51969	0.00000	1685.60600
4.52351	0.00000	1685.60600
4.52733	0.00000	1690.34000
4.53115	0.00000	1690.34000
4.53497	0.00000	1690.34000
4.53879	0.00000	1680.87100
4.54262	0.00000	1680.87100
4.54643	0.00000	1680.87100
4.55025	0.00000	1676.13600
4.55408	0.00000	1676.13600
4.55790	0.00000	1676.13600
4.56172	0.00000	1676.13600
4.56555	0.00000	1680.87100
4.56937	0.00000	1680.87100
4.57319	0.00000	1680.87100
4.57701	0.00000	1698.02300
4.58083	0.00000	1698.02300
4.58466	0.00000	1698.02300
4.58848	0.00000	1698.02300
4.59230	0.00000	1690.34000
4.59613	0.00000	1690.34000
4.59994	0.00000	1690.34000
4.60376	0.00000	1685.60600
4.60758	0.00000	1685.60600
4.61140	0.00000	1685.60600
4.61522	0.00000	1685.60600
4.61905	0.00000	1695.07500
4.62287	0.00000	1695.07500
4.62669	0.00000	1695.07500
4.63051	0.00000	1676.13600
4.63433	0.00000	1676.13600
4.63816	0.00000	1676.13600
4.64199	0.00000	1680.87100
4.64581	0.00000	1680.87100
4.64963	0.00000	1680.87100
4.65346	0.00000	1680.87100
4.65728	0.00000	1685.60600
4.66111	0.00000	1685.60600
4.66493	0.00000	1685.60600
4.66875	0.00000	1676.13600
4.67257	0.00000	1676.13600
4.67640	0.00000	1676.13600
4.68022	0.00000	1676.13600
4.68405	0.00000	1673.43700
4.68788	0.00000	1673.43700
4.69170	0.00000	1673.43700
4.69553	0.00000	1680.87100
4.69935	0.00000	1680.87100
4.70317	0.00000	1680.87100
4.70699	0.00000	1680.87100
4.71081	0.00000	1690.34000
4.71463	0.00000	1690.34000
4.71845	0.00000	1690.34000
4.72228	0.00000	1685.60600
4.72610	0.00000	1685.60600
4.72992	0.00000	1685.60600
4.73375	0.00000	1680.87100
4.73757	0.00000	1680.87100
4.74140	0.00000	1680.87100
4.74523	0.00000	1680.87100
4.74905	0.00000	1680.87100
4.75287	0.00000	1680.87100
4.75670	0.00000	1680.87100
4.76052	0.00000	1698.02300
4.76434	0.00000	1698.02300
4.76816	0.00000	1698.02300
4.77198	0.00000	1698.02300
4.77580	0.00000	1695.07500
4.77963	0.00000	1695.07500
4.78345	0.00000	1695.07500
4.78726	0.00000	1702.80600
4.79109	0.00000	1702.80600
4.79490	0.00000	1702.80600
4.79872	0.00000	1702.80600
4.80254	0.00000	1690.34000
4.80636	0.00000	1690.34000
4.81019	0.00000	1690.34000
4.81402	0.00000	1680.87100
4.81784	0.00000	1680.87100
4.82166	0.00000	1680.87100
4.82549	0.00000	1685.60600
4.82931	0.00000	1685.60600
4.83314	0.00000	1685.60600
4.83696	0.00000	1685.60600
4.84078	0.00000	1685.60600
4.84461	0.00000	1685.60600
4.84843	0.00000	1685.60600
4.85225	0.00000	1676.13600
4.85608	0.00000	1676.13600
4.85990	0.00000	1676.13600
4.86372	0.00000	1676.13600
4.86754	0.00000	1673.43700
4.87136	0.00000	1673.43700
4.87519	0.00000	1673.43700
4.87901	0.00000	1680.87100
4.88283	0.00000	1680.87100
4.88666	0.00000	1680.87100
4.89048	0.00000	1680.87100
4.89432	0.00000	1690.34000
4.89814	0.00000	1690.34000
4.90196	0.00000	1690.34000
4.90578	0.00000	1685.60600
4.90960	0.00000	1685.60600
4.91342	0.00000	1685.60600
4.91724	0.00000	1680.87100
4.92107	0.00000	1680.87100
4.92489	0.00000	1680.87100
4.92871	0.00000	1680.87100
4.93253	0.00000	1690.34000
4.93635	0.00000	1690.34000
4.94017	0.00000	1690.34000
4.94399	0.00000	1693.23900
4.94781	0.00000	1693.23900
4.95164	0.00000	1693.23900
4.95546	0.00000	1693.23900
4.95926	0.00000	1690.34000
4.96308	0.00000	1690.34000
4.96690	0.00000	1690.34000
4.97073	0.00000	1702.80600
4.97455	0.00000	1702.80600
4.97837	0.00000	1702.80600
4.98220	0.00000	1702.80600
4.98602	0.00000	1690.34000
4.98985	0.00000	1690.34000
4.99367	0.00000	1690.34000
4.99749	0.00000	1680.87100
5.00185	0.00000	1680.87100
5.00572	0.00000	1680.87100
5.00957	0.00000	1693.23900
5.01341	0.00000	1693.23900
5.01725	0.00000	1693.23900
5.02109	0.00000	1693.23900
5.02492	0.00000	1893.38200
5.02876	0.00000	1893.38200
5.03263	0.00000	1893.38200
5.03649	0.00000	2295.56000
5.04033	0.00000	2295.56000
5.04416	0.00000	2295.56000
5.04798	0.00000	2295.56000
5.05182	0.00000	2634.12600
5.05567	0.00000	2634.12600
5.05949	0.00000	2634.12600
5.06332	0.00000	2634.12600
5.06715	0.00000	2899.15900
5.07099	0.00000	2899.15900
5.07490	0.00000	2899.15900
5.07875	0.00000	2899.15900
5.08259	0.00000	2899.15900
5.08644	0.00000	3118.69900
5.09028	0.00000	3118.69900
5.09412	0.00000	3118.69900
5.09795	0.00000	3118.69900
5.10178	0.00000	3299.70400
5.10561	0.00000	3299.70400
5.10944	0.00000	3299.70400
5.11327	0.00000	3299.70400
5.11710	0.00000	3429.08600
5.12093	0.00000	3429.08600
5.12477	0.00000	3429.08600
5.12860	0.00000	3429.08600
5.13244	0.00000	3429.08600
5.13627	0.00000	3572.44300
5.14010	0.00000	3572.44300
5.14394	0.00000	3572.44300
5.14777	0.00000	3572.44300
5.15160	0.00000	3572.44300
5.15545	0.00000	3646.59900
5.15926	0.00000	3646.59900
5.16309	0.00000	3646.59900
5.16692	0.00000	3646.59900
5.17074	0.00000	3732.89200
5.17458	0.00000	3732.89200
5.17841	0.00000	3732.89200
5.18225	0.00000	3732.89200
5.18609	0.00000	3732.89200
5.18993	0.00000	3810.26700
5.19378	0.00000	3810.26700
5.19762	0.00000	3810.26700
5.20146	0.00000	3810.26700
5.20529	0.00000	3810.26700
5.20914	0.00000	3865.53700
5.21298	0.00000	3865.53700
5.21681	0.00000	3865.53700
5.22065	0.00000	3865.53700
5.22447	0.00000	3865.53700
5.22831	0.00000	3923.73200
5.23215	0.00000	3923.73200
5.23599	0.00000	3923.73200
5.23982	0.00000	3923.73200
5.24365	0.00000	3923.73200
5.24748	0.00000	3947.19800
5.25132	0.00000	3947.19800
5.25515	0.00000	3947.19800
5.25897	0.00000	3947.19800
5.26280	0.00000	3947.19800
5.26664	0.00000	4018.31800
5.27047	0.00000	4018.31800
5.27430	0.00000	4018.31800
5.27813	0.00000	4018.31800
5.28197	0.00000	4018.31800
5.28580	0.00000	4024.23400
5.28964	0.00000	4024.23400
5.29346	0.00000	4024.23400
5.29731	0.00000	4024.23400
5.30115	0.00000	4024.23400
5.30497	0.00000	4068.87700
5.30880	0.00000	4068.87700
5.31264	0.00000	4068.87700
5.31647	0.00000	4068.87700
5.32030	0.00000	4068.87700
5.32413	0.00000	4079.39100
5.32796	0.00000	4079.39100
5.33180	0.00000	4079.39100
5.33565	0.00000	4079.39100
5.33949	0.00000	4079.39100
5.34333	0.00000	4130.06700
5.34718	0.00000	4130.06700
5.35101	0.00000	4130.06700
5.35485	0.00000	4130.06700
5.35869	0.00000	4130.06700
5.36251	0.00000	4130.66200
5.36634	0.00000	4130.66200
5.37018	0.00000	4130.66200
5.37402	0.00000	4130.66200
5.37785	0.00000	4130.66200
5.38169	0.00000	4152.68400
5.38553	0.00000	4152.68400
5.38937	0.00000	4152.68400
5.39321	0.00000	4152.68400
5.39703	0.00000	4152.68400
5.40087	0.00000	4153.12500
5.40470	0.00000	4153.12500
5.40854	0.00000	4153.12500
5.41236	0.00000	4153.12500
5.41619	0.00000	4153.12500
5.42003	0.00000	4162.50000
5.42385	0.00000	4162.50000
5.42769	0.00000	4162.50000
5.43152	0.00000	4162.50000
5.43537	0.00000	4162.50000
5.43920	0.00000	4171.87500
5.44305	0.00000	4171.87500
5.44688	0.00000	4171.87500
5.45071	0.00000	4171.87500
5.45454	0.00000	4171.87500
5.45838	0.00000	4190.62500
5.46223	0.00000	4190.62500
5.46606	0.00000	4190.62500
5.46990	0.00000	4190.62500
5.47375	0.00000	4190.62500
5.47757	0.00000	4190.62500
5.48140	0.00000	4209.37500
5.48525	0.00000	4209.37500
5.48909	0.00000	4209.37500
5.49293	0.00000	4209.37500
5.49677	0.00000	4209.37500
5.50060	0.00000	4221.87500
5.50439	0.00000	4221.87500
5.50822	0.00000	4221.87500
5.51205	0.00000	4221.87500
5.51589	0.00000	4221.87500
5.51972	0.00000	4212.50000
5.52356	0.00000	4212.50000
5.52740	0.00000	4212.50000
5.53123	0.00000	4212.50000
5.53507	0.00000	4212.50000
5.53890	0.00000	4209.43700
5.54274	0.00000	4209.43700
5.54657	0.00000	4209.43700
5.55040	0.00000	4209.43700
5.55424	0.00000	4209.43700
5.55808	0.00000	4224.95800
5.56191	0.00000	4224.95800
5.56574	0.00000	4224.95800
5.56958	0.00000	4224.95800
5.57342	0.00000	4224.95800
5.57726	0.00000	4181.74300
5.58109	0.00000	4181.74300
5.58492	0.00000	4181.74300
5.58876	0.00000	4181.74300
5.59260	0.00000	4181.74300
5.59643	0.00000	4218.75000
5.60026	0.00000	4218.75000
5.60409	0.00000	4218.75000
5.60793	0.00000	4218.75000
5.61176	0.00000	4218.75000
5.61560	0.00000	4218.75000
5.61943	0.00000	4237.37500
5.62326	0.00000	4237.37500
5.62709	0.00000	4237.37500
5.63093	0.00000	4237.37500
5.63476	0.00000	4237.37500
5.63860	0.00000	4240.48000
5.64244	0.00000	4240.48000
5.64627	0.00000	4240.48000
5.65011	0.00000	4240.48000
5.65395	0.00000	4240.48000
5.65778	0.00000	4212.58200
5.66161	0.00000	4212.58200
5.66545	0.00000	4212.58200
5.66928	0.00000	4212.58200
5.67311	0.00000	4212.58200
5.67695	0.00000	4215.66600
5.68079	0.00000	4215.66600
5.68462	0.00000	4215.66600
5.68845	0.00000	4215.66600
5.69228	0.00000	4215.66600
5.69611	0.00000	4218.75000
5.69994	0.00000	4218.75000
5.70377	0.00000	4218.75000
5.70760	0.00000	4218.75000
5.71144	0.00000	4218.75000
5.71526	0.00000	4218.75000
5.71909	0.00000	4231.08500
5.72293	0.00000	4231.08500
5.72676	0.00000	4231.08500
5.73059	0.00000	4231.08500
5.73442	0.00000	4231.08500
5.73826	0.00000	4246.68900
5.74210	0.00000	4246.68900
5.74594	0.00000	4246.68900
5.74979	0.00000	4246.68900
5.75362	0.00000	4246.68900
5.75746	0.00000	4252.89700
5.76129	0.00000	4252.89700
5.76512	0.00000	4252.89700
5.76895	0.00000	4252.89700
5.77279	0.00000	4252.89700
5.77662	0.00000	4237.37500
5.78045	0.00000	4237.37500
5.78428	0.00000	4237.37500
5.78812	0.00000	4237.37500
5.79196	0.00000	4237.37500
5.79579	0.00000	4249.79300
5.79963	0.00000	4249.79300
5.80346	0.00000	4249.79300
5.80726	0.00000	4249.79300
5.81110	0.00000	4249.79300
5.81492	0.00000	4243.58400
5.81875	0.00000	4243.58400
5.82258	0.00000	4243.58400
5.82641	0.00000	4243.58400
5.83025	0.00000	4243.58400
5.83408	0.00000	4243.58400
5.83792	0.00000	4221.83400
5.84175	0.00000	4221.83400
5.84559	0.00000	4221.83400
5.84942	0.00000	4221.83400
5.85325	0.00000	4221.83400
5.85709	0.00000	4224.91800
5.86093	0.00000	4224.91800
5.86476	0.00000	4224.91800
5.86859	0.00000	4224.91800
5.87242	0.00000	4224.91800
5.87626	0.00000	4215.66600
5.88009	0.00000	4215.66600
5.88393	0.00000	4215.66600
5.88777	0.00000	4215.66600
5.89161	0.00000	4215.66600
5.89545	0.00000	4218.75000
5.89926	0.00000	4218.75000
5.90310	0.00000	4218.75000
5.90693	0.00000	4218.75000
5.91077	0.00000	4218.75000
5.91462	0.00000	4249.79300
5.91846	0.00000	4249.79300
5.92229	0.00000	4249.79300
5.92612	0.00000	4249.79300
5.92996	0.00000	4249.79300
5.93378	0.00000	4240.48000
5.93760	0.00000	4240.48000
5.94144	0.00000	4240.48000
5.94528	0.00000	4240.48000
5.94911	0.00000	4240.48000
5.95294	0.00000	4240.48000
5.95678	0.00000	4212.58200
5.96062	0.00000	4212.58200
5.96446	0.00000	4212.58200
5.96830	0.00000	4212.58200
5.97214	0.00000	4212.58200
5.97596	0.00000	4215.66600
5.97979	0.00000	4215.66600
5.98363	0.00000	4215.66600
5.98746	0.00000	4215.66600
5.99126	0.00000	4215.66600
5.99510	0.00000	4228.00200
5.99894	0.00000	4228.00200
6.00278	0.00000	4228.00200
6.00661	0.00000	4228.00200
6.01044	0.00000	4228.00200
6.01428	0.00000	4218.75000
6.01812	0.00000	4218.75000
6.02195	0.00000	4218.75000
6.02579	0.00000	4218.75000
6.02963	0.00000	4218.75000
6.03346	0.00000	4234.27100
6.03731	0.00000	4234.27100
6.04114	0.00000	4234.27100
6.04498	0.00000	4234.27100
6.04881	0.00000	4234.27100
6.05265	0.00000	4234.27100
6.05648	0.00000	4234.16900
6.06031	0.00000	4234.16900
6.06415	0.00000	4234.16900
6.06798	0.00000	4234.16900
6.07182	0.00000	4234.16900
6.07566	0.00000	4231.08500
6.07950	0.00000	4231.08500
6.08333	0.00000	4231.08500
6.08718	0.00000	4231.08500
6.09101	0.00000	4231.08500
6.09486	0.00000	4221.83400
6.09869	0.00000	4221.83400
6.10253	0.00000	4221.83400
6.10636	0.00000	4221.83400
6.11020	0.00000	4221.83400
6.11403	0.00000	4256.00200
6.11786	0.00000	4256.00200
6.12169	0.00000	4256.00200
6.12552	0.00000	4256.00200
6.12936	0.00000	4256.00200
6.13320	0.00000	4215.66600
6.13702	0.00000	4215.66600
6.14086	0.00000	4215.66600
6.14470	0.00000	4215.66600
6.14853	0.00000	4215.66600
6.15237	0.00000	4218.75000
6.15620	0.00000	4218.75000
6.16003	0.00000	4218.75000
6.16387	0.00000	4218.75000
6.16771	0.00000	4218.75000
6.17154	0.00000	4218.75000
6.17537	0.00000	4234.16900
6.17921	0.00000	4234.16900
6.18305	0.00000	4234.16900
6.18688	0.00000	4234.16900
6.19071	0.00000	4234.16900
6.19454	0.00000	4224.91800
6.19837	0.00000	4224.91800
6.20221	0.00000	4224.91800
6.20604	0.00000	4224.91800
6.20988	0.00000	4224.91800
6.21372	0.00000	4228.00200
6.21754	0.00000	4228.00200
6.22137	0.00000	4228.00200
6.22521	0.00000	4228.00200
6.22905	0.00000	4228.00200
6.23288	0.00000	4218.75000
6.23672	0.00000	4218.75000
6.24055	0.00000	4218.75000
6.24439	0.00000	4218.75000
6.24823	0.00000	4218.75000
6.25207	0.00000	4224.91800
6.25595	0.00000	4224.91800
6.25984	0.00000	4224.91800
6.26368	0.00000	4224.91800
6.26752	0.00000	4224.91800
6.27136	0.00000	4228.00200
6.27519	0.00000	4228.00200
6.27903	0.00000	4228.00200
6.28286	0.00000	4228.00200
6.28670	0.00000	4228.00200
6.29053	0.00000	4228.00200
6.29437	0.00000	4231.08500
6.29820	0.00000	4231.08500
6.30204	0.00000	4231.08500
6.30586	0.00000	4231.08500
6.30969	0.00000	4231.08500
6.31354	0.00000	4240.48000
6.31739	0.00000	4240.48000
6.32121	0.00000	4240.48000
6.32505	0.00000	4240.48000
6.32889	0.00000	4240.48000
6.33272	0.00000	4252.89700
6.33656	0.00000	4252.89700
6.34040	0.00000	4252.89700
6.34424	0.00000	4252.89700
6.34807	0.00000	4252.89700
6.35191	0.00000	4228.00200
6.35575	0.00000	4228.00200
6.35958	0.00000	4228.00200
6.36341	0.00000	4228.00200
6.36726	0.00000	4228.00200
6.37109	0.00000	4224.91800
6.37494	0.00000	4224.91800
6.37877	0.00000	4224.91800
6.38260	0.00000	4224.91800
6.38644	0.00000	4224.91800
6.39028	0.00000	4224.91800
6.39412	0.00000	4240.33700
6.39795	0.00000	4240.33700
6.40179	0.00000	4240.33700
6.40562	0.00000	4240.33700
6.40945	0.00000	4240.33700
6.41328	0.00000	4252.89700
6.41711	0.00000	4252.89700
6.42095	0.00000	4252.89700
6.42478	0.00000	4252.89700
6.42862	0.00000	4252.89700
6.43244	0.00000	4246.68900
6.43629	0.00000	4246.68900
6.44011	0.00000	4246.68900
6.44394	0.00000	4246.68900
6.44777	0.00000	4246.68900
6.45161	0.00000	4243.58400
6.45543	0.00000	4243.58400
6.45926	0.00000	4243.58400
6.46311	0.00000	4243.58400
6.46694	0.00000	4243.58400
6.47079	0.00000	4240.48000
6.47463	0.00000	4240.48000
6.47847	0.00000	4240.48000
6.48232	0.00000	4240.48000
6.48615	0.00000	4240.48000
6.49000	0.00000	4228.00200
6.49384	0.00000	4228.00200
6.49768	0.00000	4228.00200
6.50151	0.00000	4228.00200
6.50535	0.00000	4228.00200
6.50919	0.00000	4228.00200
6.51302	0.00000	4224.91800
6.51686	0.00000	4224.91800
6.52070	0.00000	4224.91800
6.52453	0.00000	4224.91800
6.52838	0.00000	4224.91800
6.53221	0.00000	4221.83400
6.53605	0.00000	4221.83400
6.53989	0.00000	4221.83400
6.54372	0.00000	4221.83400
6.54754	0.00000	4221.83400
6.55139	0.00000	4212.58200
6.55522	0.00000	4212.58200
6.55906	0.00000	4212.58200
6.56289	0.00000	4212.58200
6.56672	0.00000	4212.58200
6.57055	0.00000	4218.75000
6.57438	0.00000	4218.75000
6.57820	0.00000	4218.75000
6.58204	0.00000	4218.75000
6.58588	0.00000	4218.75000
6.58972	0.00000	4243.58400
6.59355	0.00000	4243.58400
6.59740	0.00000	4243.58400
6.60124	0.00000	4243.58400
6.60507	0.00000	4243.58400
6.60891	0.00000	4249.79300
6.61274	0.00000	4249.79300
6.61657	0.00000	4249.79300
6.62041	0.00000	4249.79300
6.62425	0.00000	4249.79300
6.62809	0.00000	4249.79300
6.63192	0.00000	4231.08500
6.63576	0.00000	4231.08500
6.63960	0.00000	4231.08500
6.64343	0.00000	4231.08500
6.64726	0.00000	4231.08500
6.65110	0.00000	4215.66600
6.65494	0.00000	4215.66600
6.65877	0.00000	4215.66600
6.66262	0.00000	4215.66600
6.66645	0.00000	4215.66600
6.67028	0.00000	4228.00200
6.67411	0.00000	4228.00200
6.67795	0.00000	4228.00200
6.68179	0.00000	4228.00200
6.68562	0.00000	4228.00200
6.68945	0.00000	4231.08500
6.69329	0.00000	4231.08500
6.69712	0.00000	4231.08500
6.70095	0.00000	4231.08500
6.70479	0.00000	4231.08500
6.70862	0.00000	4221.83400
6.71246	0.00000	4221.83400
6.71629	0.00000	4221.83400
6.72012	0.00000	4221.83400
6.72396	0.00000	4221.83400
6.72779	0.00000	4221.83400
6.73162	0.00000	4218.75000
6.73545	0.00000	4218.75000
6.73926	0.00000	4218.75000
6.74310	0.00000	4218.75000
6.74693	0.00000	4218.75000
6.75078	0.00000	4221.83400
6.75460	0.00000	4221.83400
6.75843	0.00000	4221.83400
6.76226	0.00000	4221.83400
6.76609	0.00000	4221.83400
6.76992	0.00000	4221.83400
6.77375	0.00000	4221.83400
6.77759	0.00000	4221.83400
6.78143	0.00000	4221.83400
6.78526	0.00000	4221.83400
6.78909	0.00000	4221.83400
6.79293	0.00000	4221.83400
6.79677	0.00000	4221.83400
6.80061	0.00000	4221.83400
6.80445	0.00000	4221.83400
6.80832	0.00000	4228.00200
6.81216	0.00000	4228.00200
6.81600	0.00000	4228.00200
6.81985	0.00000	4228.00200
6.82369	0.00000	4228.00200
6.82751	0.00000	4221.83400
6.83136	0.00000	4221.83400
6.83519	0.00000	4221.83400
6.83901	0.00000	4221.83400
6.84284	0.00000	4221.83400
6.84668	0.00000	4221.83400
6.85050	0.00000	4221.83400
6.85434	0.00000	4221.83400
6.85818	0.00000	4221.83400
6.86202	0.00000	4221.83400
6.86586	0.00000	4221.83400
6.86969	0.00000	4246.68900
6.87352	0.00000	4246.68900
6.87736	0.00000	4246.68900
6.88119	0.00000	4246.68900
6.88502	0.00000	4246.68900
6.88884	0.00000	4209.49800
6.89269	0.00000	4209.49800
6.89651	0.00000	4209.49800
6.90034	0.00000	4209.49800
6.90417	0.00000	4209.49800
6.90801	0.00000	4224.91800
6.91184	0.00000	4224.91800
6.91567	0.00000	4224.91800
6.91950	0.00000	4224.91800
6.92334	0.00000	4224.91800
6.92717	0.00000	4215.66600
6.93102	0.00000	4215.66600
6.93486	0.00000	4215.66600
6.93870	0.00000	4215.66600
6.94254	0.00000	4215.66600
6.94636	0.00000	4218.75000
6.95020	0.00000	4218.75000
6.95403	0.00000	4218.75000
6.95786	0.00000	4218.75000
6.96171	0.00000	4218.75000
6.96554	0.00000	4218.75000
6.96937	0.00000	4224.91800
6.97320	0.00000	4224.91800
6.97704	0.00000	4224.91800
6.98088	0.00000	4224.91800
6.98471	0.00000	4224.91800
6.98854	0.00000	4240.48000
6.99238	0.00000	4240.48000
6.99623	0.00000	4240.48000
7.00006	0.00000	4240.48000
7.00390	0.00000	4240.48000
7.00774	0.00000	4215.66600
7.01158	0.00000	4215.66600
7.01540	0.00000	4215.66600
7.01923	0.00000	4215.66600
7.02308	0.00000	4215.66600
7.02690	0.00000	4209.49800
7.03074	0.00000	4209.49800
7.03456	0.00000	4209.49800
7.03839	0.00000	4209.49800
7.04223	0.00000	4209.49800
7.04607	0.00000	4218.75000
7.04991	0.00000	4218.75000
7.05374	0.00000	4218.75000
7.05757	0.00000	4218.75000
7.06141	0.00000	4218.75000
7.06525	0.00000	4234.27100
7.06908	0.00000	4234.27100
7.07292	0.00000	4234.27100
7.07674	0.00000	4234.27100
7.08059	0.00000	4234.27100
7.08439	0.00000	4234.27100
7.08822	0.00000	4215.66600
7.09207	0.00000	4215.66600
7.09591	0.00000	4215.66600
7.09974	0.00000	4215.66600
7.10357	0.00000	4215.66600
7.10740	0.00000	4209.49800
7.11124	0.00000	4209.49800
7.11509	0.00000	4209.49800
7.11892	0.00000	4209.49800
7.12274	0.00000	4209.49800
7.12658	0.00000	4218.75000
7.13041	0.00000	4218.75000
7.13425	0.00000	4218.75000
7.13808	0.00000	4218.75000
7.14192	0.00000	4218.75000
7.14576	0.00000	4240.48000
7.14960	0.00000	4240.48000
7.15343	0.00000	4240.48000
7.15726	0.00000	4240.48000
7.16109	0.00000	4240.48000
7.16492	0.00000	4237.37500
7.16877	0.00000	4237.37500
7.17260	0.00000	4237.37500
7.17644	0.00000	4237.37500
7.18027	0.00000	4237.37500
7.18410	0.00000	4237.37500
7.18793	0.00000	4224.91800
7.19176	0.00000	4224.91800
7.19559	0.00000	4224.91800
7.19943	0.00000	4224.91800
7.20326	0.00000	4224.91800
7.20710	0.00000	4221.83400
7.21093	0.00000	4221.83400
7.21477	0.00000	4221.83400
7.21862	0.00000	4221.83400
7.22244	0.00000	4221.83400
7.22628	0.00000	4209.49800
7.23011	0.00000	4209.49800
7.23393	0.00000	4209.49800
7.23776	0.00000	4209.49800
7.24159	0.00000	4209.49800
7.24542	0.00000	4237.37500
7.24925	0.00000	4237.37500
7.25308	0.00000	4237.37500
7.25692	0.00000	4237.37500
7.26076	0.00000	4237.37500
7.26460	0.00000	4240.48000
7.26844	0.00000	4240.48000
7.27228	0.00000	4240.48000
7.27612	0.00000	4240.48000
7.27996	0.00000	4240.48000
7.28380	0.00000	4218.75000
7.28764	0.00000	4218.75000
7.29148	0.00000	4218.75000
7.29531	0.00000	4218.75000
7.29914	0.00000	4218.75000
7.30297	0.00000	4218.75000
7.30680	0.00000	4221.83400
7.31063	0.00000	4221.83400
7.31447	0.00000	4221.83400
7.31830	0.00000	4221.83400
7.32213	0.00000	4221.83400
7.32596	0.00000	4215.66600
7.32979	0.00000	4215.66600
7.33362	0.00000	4215.66600
7.33746	0.00000	4215.66600
7.34129	0.00000	4215.66600
7.34512	0.00000	4231.16700
7.34896	0.00000	4231.16700
7.35280	0.00000	4231.16700
7.35666	0.00000	4231.16700
7.36060	0.00000	4231.16700
7.36447	0.00000	4240.48000
7.36832	0.00000	4240.48000
7.37216	0.00000	4240.48000
7.37600	0.00000	4240.48000
7.37984	0.00000	4240.48000
7.38368	0.00000	4209.49800
7.38752	0.00000	4209.49800
7.39136	0.00000	4209.49800
7.39519	0.00000	4209.49800
7.39902	0.00000	4209.49800
7.40287	0.00000	4209.49800
7.40672	0.00000	4209.49800
7.41056	0.00000	4209.49800
7.41439	0.00000	4209.49800
7.41823	0.00000	4209.49800
7.42206	0.00000	4209.49800
7.42588	0.00000	4231.08500
7.42973	0.00000	4231.08500
7.43356	0.00000	4231.08500
7.43739	0.00000	4231.08500
7.44122	0.00000	4231.08500
7.44505	0.00000	4240.48000
7.44888	0.00000	4240.48000
7.45271	0.00000	4240.48000
7.45654	0.00000	4240.48000
7.46037	0.00000	4240.48000
7.46421	0.00000	4215.66600
7.46805	0.00000	4215.66600
7.47189	0.00000	4215.66600
7.47573	0.00000	4215.66600
7.47956	0.00000	4215.66600
7.48339	0.00000	4206.41400
7.48723	0.00000	4206.41400
7.49108	0.00000	4206.41400
7.49491	0.00000	4206.41400
7.49874	0.00000	4206.41400
7.50257	0.00000	4221.83400
7.50640	0.00000	4221.83400
7.51023	0.00000	4221.83400
7.51406	0.00000	4221.83400
7.51790	0.00000	4221.83400
7.52173	0.00000	4212.58200
7.52556	0.00000	4212.58200
7.52941	0.00000	4212.58200
7.53325	0.00000	4212.58200
7.53708	0.00000	4212.58200
7.54091	0.00000	4212.58200
7.54474	0.00000	4218.75000
7.54858	0.00000	4218.75000
7.55242	0.00000	4218.75000
7.55626	0.00000	4218.75000
7.56010	0.00000	4218.75000
7.56393	0.00000	4215.66600
7.56776	0.00000	4215.66600
7.57159	0.00000	4215.66600
7.57542	0.00000	4215.66600
7.57925	0.00000	4215.66600
7.58310	0.00000	4209.49800
7.58693	0.00000	4209.49800
7.59077	0.00000	4209.49800
7.59460	0.00000	4209.49800
7.59843	0.00000	4209.49800
7.60226	0.00000	4218.75000
7.60610	0.00000	4218.75000
7.60995	0.00000	4218.75000
7.61380	0.00000	4218.75000
7.61762	0.00000	4218.75000
7.62146	0.00000	4240.48000
7.62529	0.00000	4240.48000
7.62913	0.00000	4240.48000
7.63296	0.00000	4240.48000
7.63679	0.00000	4240.48000
7.64062	0.00000	4246.68900
7.64444	0.00000	4246.68900
7.64828	0.00000	4246.68900
7.65211	0.00000	4246.68900
7.65594	0.00000	4246.68900
7.65977	0.00000	4246.68900
7.66360	0.00000	4221.83400
7.66744	0.00000	4221.83400
7.67126	0.00000	4221.83400
7.67510	0.00000	4221.83400
7.67894	0.00000	4221.83400
7.68277	0.00000	4218.75000
7.68660	0.00000	4218.75000
7.69043	0.00000	4218.75000
7.69427	0.00000	4218.75000
7.69809	0.00000	4218.75000
7.70192	0.00000	4231.16700
7.70575	0.00000	4231.16700
7.70958	0.00000	4231.16700
7.71342	0.00000	4231.16700
7.71724	0.00000	4231.16700
7.72109	0.00000	4234.27100
7.72492	0.00000	4234.27100
7.72875	0.00000	4234.27100
7.73258	0.00000	4234.27100
7.73641	0.00000	4234.27100
7.74024	0.00000	4234.27100
7.74409	0.00000	4234.27100
7.74791	0.00000	4234.27100
7.75175	0.00000	4234.27100
7.75558	0.00000	4234.27100
7.75942	0.00000	4234.27100
7.76325	0.00000	4228.00200
7.76709	0.00000	4228.00200
7.77091	0.00000	4228.00200
7.77476	0.00000	4228.00200
7.77859	0.00000	4228.00200
7.78242	0.00000	4243.58400
7.78625	0.00000	4243.58400
7.79009	0.00000	4243.58400
7.79392	0.00000	4243.58400
7.79776	0.00000	4243.58400
7.80160	0.00000	4246.68900
7.80543	0.00000	4246.68900
7.80926	0.00000	4246.68900
7.81309	0.00000	4246.68900
7.81692	0.00000	4246.68900
7.82075	0.00000	4249.79300
7.82458	0.00000	4249.79300
7.82841	0.00000	4249.79300
7.83226	0.00000	4249.79300
7.83609	0.00000	4249.79300
7.83992	0.00000	4237.37500
7.84375	0.00000	4237.37500
7.84759	0.00000	4237.37500
7.85142	0.00000	4237.37500
7.85526	0.00000	4237.37500
7.85910	0.00000	4224.91800
7.86297	0.00000	4224.91800
7.86683	0.00000	4224.91800
7.87067	0.00000	4224.91800
7.87452	0.00000	4224.91800
7.87836	0.00000	4224.91800
7.88219	0.00000	4231.08500
7.88602	0.00000	4231.08500
7.88987	0.00000	4231.08500
7.89370	0.00000	4231.08500
7.89754	0.00000	4231.08500
7.90139	0.00000	4221.83400
7.90522	0.00000	4221.83400
7.90905	0.00000	4221.83400
7.91288	0.00000	4221.83400
7.91671	0.00000	4221.83400
7.92054	0.00000	4209.49800
7.92437	0.00000	4209.49800
7.92820	0.00000	4209.49800
7.93205	0.00000	4209.49800
7.93588	0.00000	4209.49800
7.93971	0.00000	4215.66600
7.94357	0.00000	4215.66600
7.94741	0.00000	4215.66600
7.95125	0.00000	4215.66600
7.95509	0.00000	4215.66600
7.95893	0.00000	4243.58400
7.96277	0.00000	4243.58400
7.96660	0.00000	4243.58400
7.97044	0.00000	4243.58400
7.97427	0.00000	4243.58400
7.97811	0.00000	4243.58400
7.98195	0.00000	4243.58400
7.98580	0.00000	4243.58400
7.98963	0.00000	4243.58400
7.99346	0.00000	4243.58400
7.99729	0.00000	4243.58400
8.00112	0.00000	4231.08500
8.00496	0.00000	4231.08500
8.00883	0.00000	4231.08500
8.01268	0.00000	4231.08500
8.01652	0.00000	4231.08500
8.02035	0.00000	4203.33000
8.02419	0.00000	4203.33000
8.02803	0.00000	4203.33000
8.03188	0.00000	4203.33000
8.03571	0.00000	4203.33000
8.03954	0.00000	4237.37500
8.04337	0.00000	4237.37500
8.04721	0.00000	4237.37500
8.05104	0.00000	4237.37500
8.05487	0.00000	4237.37500
8.05870	0.00000	4237.37500
8.06254	0.00000	4237.37500
8.06637	0.00000	4237.37500
8.07020	0.00000	4237.37500
8.07403	0.00000	4237.37500
8.07787	0.00000	4240.48000
8.08170	0.00000	4240.48000
8.08553	0.00000	4240.48000
8.08937	0.00000	4240.48000
8.09320	0.00000	4240.48000
8.09703	0.00000	4212.58200
8.10088	0.00000	4212.58200
8.10471	0.00000	4212.58200
8.10855	0.00000	4212.58200
8.11238	0.00000	4212.58200
8.11623	0.00000	4212.58200
8.12006	0.00000	4228.00200
8.12389	0.00000	4228.00200
8.12774	0.00000	4228.00200
8.13157	0.00000	4228.00200
8.13540	0.00000	4228.00200
8.13924	0.00000	4243.58400
8.14308	0.00000	4243.58400
8.14692	0.00000	4243.58400
8.15075	0.00000	4243.58400
8.15459	0.00000	4243.58400
8.15841	0.00000	4252.89700
8.16225	0.00000	4252.89700
8.16609	0.00000	4252.89700
8.16992	0.00000	4252.89700
8.17375	0.00000	4252.89700
8.17759	0.00000	4246.68900
8.18142	0.00000	4246.68900
8.18525	0.00000	4246.68900
8.18909	0.00000	4246.68900
8.19292	0.00000	4246.68900
8.19675	0.00000	4252.89700
8.20059	0.00000	4252.89700
8.20442	0.00000	4252.89700
8.20826	0.00000	4252.89700
8.21210	0.00000	4252.89700
8.21594	0.00000	4246.68900
8.21977	0.00000	4246.68900
8.22361	0.00000	4246.68900
8.22744	0.00000	4246.68900
8.23126	0.00000	4246.68900
8.23509	0.00000	4246.68900
8.23893	0.00000	4215.66600
8.24275	0.00000	4215.66600
8.24659	0.00000	4215.66600
8.25043	0.00000	4215.66600
8.25426	0.00000	4215.66600
8.25810	0.00000	4218.75000
8.26193	0.00000	4218.75000
8.26577	0.00000	4218.75000
8.26960	0.00000	4218.75000
8.27343	0.00000	4218.75000
8.27727	0.00000	4218.75000
8.28111	0.00000	4218.75000
8.28494	0.00000	4218.75000
8.28877	0.00000	4218.75000
8.29261	0.00000	4218.75000
8.29644	0.00000	4228.06300
8.30028	0.00000	4228.06300
8.30411	0.00000	4228.06300
8.30795	0.00000	4228.06300
8.31178	0.00000	4228.06300
8.31562	0.00000	4240.48000
8.31946	0.00000	4240.48000
8.32326	0.00000	4240.48000
8.32709	0.00000	4240.48000
8.33093	0.00000	4240.48000
8.33477	0.00000	4240.48000
8.33860	0.00000	4206.49500
8.34244	0.00000	4206.49500
8.34628	0.00000	4206.49500
8.35011	0.00000	4206.49500
8.35394	0.00000	4206.49500
8.35778	0.00000	4218.75000
8.36162	0.00000	4218.75000
8.36545	0.00000	4218.75000
8.36929	0.00000	4218.75000
8.37312	0.00000	4218.75000
8.37696	0.00000	4237.37500
8.38080	0.00000	4237.37500
8.38463	0.00000	4237.37500
8.38846	0.00000	4237.37500
8.39230	0.00000	4237.37500
8.39614	0.00000	4246.68900
8.39997	0.00000	4246.68900
8.40380	0.00000	4246.68900
8.40763	0.00000	4246.68900
8.41146	0.00000	4246.68900
8.41526	0.00000	4234.27100
8.41910	0.00000	4234.27100
8.42293	0.00000	4234.27100
8.42677	0.00000	4234.27100
8.43059	0.00000	4234.27100
8.43444	0.00000	4203.33000
8.43828	0.00000	4203.33000
8.44210	0.00000	4203.33000
8.44593	0.00000	4203.33000
8.44977	0.00000	4203.33000
8.45361	0.00000	4203.33000
8.45744	0.00000	4218.75000
8.46128	0.00000	4218.75000
8.46511	0.00000	4218.75000
8.46895	0.00000	4218.75000
8.47278	0.00000	4218.75000
8.47661	0.00000	4234.27100
8.48044	0.00000	4234.27100
8.48427	0.00000	4234.27100
8.48811	0.00000	4234.27100
8.49194	0.00000	4234.27100
8.49577	0.00000	4200.24600
8.49961	0.00000	4200.24600
8.50345	0.00000	4200.24600
8.50726	0.00000	4200.24600
8.51110	0.00000	4200.24600
8.51494	0.00000	4240.48000
8.51877	0.00000	4240.48000
8.52261	0.00000	4240.48000
8.52644	0.00000	4240.48000
8.53028	0.00000	4240.48000
8.53411	0.00000	4237.37500
8.53795	0.00000	4237.37500
8.54178	0.00000	4237.37500
8.54562	0.00000	4237.37500
8.54946	0.00000	4237.37500
8.55329	0.00000	4246.68900
8.55714	0.00000	4246.68900
8.56098	0.00000	4246.68900
8.56482	0.00000	4246.68900
8.56962	0.00000	4246.68900
8.57376	0.00000	4221.85400
8.57789	0.00000	4221.85400
8.58202	0.00000	4221.85400
8.58616	0.00000	4221.85400
8.59029	0.00000	4221.85400
8.59434	0.00000	4231.16700
8.59824	0.00000	4231.16700
8.60207	0.00000	4231.16700
8.60591	0.00000	4231.16700
8.60975	0.00000	4231.16700
8.61358	0.00000	4237.37500
8.61742	0.00000	4237.37500
8.62126	0.00000	4237.37500
8.62509	0.00000	4237.37500
8.62892	0.00000	4237.37500
8.63275	0.00000	4206.41400
8.63659	0.00000	4206.41400
8.64041	0.00000	4206.41400
8.64423	0.00000	4206.41400
8.64806	0.00000	4206.41400
8.65188	0.00000	4206.41400
8.65569	0.00000	4234.16900
8.65951	0.00000	4234.16900
8.66333	0.00000	4234.16900
8.66715	0.00000	4234.16900
8.67098	0.00000	4234.16900
8.67480	0.00000	4234.27100
8.67863	0.00000	4234.27100
8.68245	0.00000	4234.27100
8.68627	0.00000	4234.27100
8.69010	0.00000	4234.27100
8.69392	0.00000	4243.58400
8.69774	0.00000	4243.58400
8.70157	0.00000	4243.58400
8.70539	0.00000	4243.58400
8.70921	0.00000	4243.58400
8.71303	0.00000	4190.99500
8.71686	0.00000	4190.99500
8.72068	0.00000	4190.99500
8.72451	0.00000	4190.99500
8.72834	0.00000	4190.99500
8.73219	0.00000	4237.37500
8.73602	0.00000	4237.37500
8.73986	0.00000	4237.37500
8.74370	0.00000	4237.37500
8.74752	0.00000	4237.37500
8.75136	0.00000	4231.16700
8.75520	0.00000	4231.16700
8.75903	0.00000	4231.16700
8.76286	0.00000	4231.16700
8.76670	0.00000	4231.16700
8.77053	0.00000	4231.16700
8.77436	0.00000	4240.48000
8.77820	0.00000	4240.48000
8.78204	0.00000	4240.48000
8.78588	0.00000	4240.48000
8.78971	0.00000	4240.48000
8.79355	0.00000	4237.37500
8.79739	0.00000	4237.37500
8.80123	0.00000	4237.37500
8.80507	0.00000	4237.37500
8.80891	0.00000	4237.37500
8.81274	0.00000	4237.37500
8.81658	0.00000	4237.37500
8.82042	0.00000	4237.37500
8.82425	0.00000	4237.37500
8.82809	0.00000	4237.37500
8.83192	0.00000	4200.24600
8.83575	0.00000	4200.24600
8.83959	0.00000	4200.24600
8.84342	0.00000	4200.24600
8.84726	0.00000	4200.24600
8.85109	0.00000	4212.58200
8.85494	0.00000	4212.58200
8.85878	0.00000	4212.58200
8.86262	0.00000	4212.58200
8.86646	0.00000	4212.58200
8.87030	0.00000	4240.48000
8.87413	0.00000	4240.48000
8.87797	0.00000	4240.48000
8.88181	0.00000	4240.48000
8.88565	0.00000	4240.48000
8.88948	0.00000	4240.48000
8.89332	0.00000	4218.75000
8.89716	0.00000	4218.75000
8.90100	0.00000	4218.75000
8.90484	0.00000	4218.75000
8.90867	0.00000	4218.75000
8.91251	0.00000	4212.58200
8.91634	0.00000	4212.58200
8.92017	0.00000	4212.58200
8.92401	0.00000	4212.58200
8.92785	0.00000	4212.58200
8.93169	0.00000	4228.06300
8.93552	0.00000	4228.06300
8.93936	0.00000	4228.06300
8.94320	0.00000	4228.06300
8.94703	0.00000	4228.06300
8.95087	0.00000	4243.58400
8.95471	0.00000	4243.58400
8.95855	0.00000	4243.58400
8.96237	0.00000	4243.58400
8.96621	0.00000	4243.58400
8.97004	0.00000	4197.16200
8.97389	0.00000	4197.16200
8.97773	0.00000	4197.16200
8.98156	0.00000	4197.16200
8.98540	0.00000	4197.16200
8.98924	0.00000	4209.49800
8.99307	0.00000	4209.49800
8.99691	0.00000	4209.49800
9.00075	0.00000	4209.49800
9.00459	0.00000	4209.49800
9.00844	0.00000	4209.49800
9.01228	0.00000	4209.49800
9.01612	0.00000	4209.49800
9.01996	0.00000	4209.49800
9.02380	0.00000	4209.49800
9.02763	0.00000	4209.49800
9.03147	0.00000	4209.49800
9.03531	0.00000	4209.49800
9.03915	0.00000	4209.49800
9.04297	0.00000	4209.49800
9.04681	0.00000	4209.49800
9.05063	0.00000	4234.27100
9.05447	0.00000	4234.27100
9.05832	0.00000	4234.27100
9.06215	0.00000	4234.27100
9.06598	0.00000	4234.27100
9.06982	0.00000	4231.16700
9.07366	0.00000	4231.16700
9.07750	0.00000	4231.16700
9.08135	0.00000	4231.16700
9.08519	0.00000	4231.16700
9.08903	0.00000	4206.41400
9.09288	0.00000	4206.41400
9.09672	0.00000	4206.41400
9.10054	0.00000	4206.41400
9.10438	0.00000	4206.41400
9.10822	0.00000	4237.37500
9.11204	0.00000	4237.37500
9.11588	0.00000	4237.37500
9.11972	0.00000	4237.37500
9.12356	0.00000	4237.37500
9.12739	0.00000	4237.37500
9.13124	0.00000	4212.58200
9.13510	0.00000	4212.58200
9.13894	0.00000	4212.58200
9.14277	0.00000	4212.58200
9.14661	0.00000	4212.58200
9.15045	0.00000	4203.33000
9.15429	0.00000	4203.33000
9.15813	0.00000	4203.33000
9.16196	0.00000	4203.33000
9.16580	0.00000	4203.33000
9.16963	0.00000	4243.58400
9.17346	0.00000	4243.58400
9.17730	0.00000	4243.58400
9.18113	0.00000	4243.58400
9.18498	0.00000	4243.58400
9.18885	0.00000	4243.58400
9.19269	0.00000	4243.58400
9.19653	0.00000	4243.58400
9.20037	0.00000	4243.58400
9.20421	0.00000	4243.58400
9.20804	0.00000	4234.27100
9.21188	0.00000	4234.27100
9.21571	0.00000	4234.27100
9.21954	0.00000	4234.27100
9.22338	0.00000	4234.27100
9.22721	0.00000	4197.16200
9.23104	0.00000	4197.16200
9.23488	0.00000	4197.16200
9.23871	0.00000	4197.16200
9.24254	0.00000	4197.16200
9.24638	0.00000	4197.16200
9.25022	0.00000	4206.41400
9.25405	0.00000	4206.41400
9.25789	0.00000	4206.41400
9.26173	0.00000	4206.41400
9.26556	0.00000	4206.41400
9.26939	0.00000	4200.24600
9.27323	0.00000	4200.24600
9.27707	0.00000	4200.24600
9.28090	0.00000	4200.24600
9.28474	0.00000	4200.24600
9.28857	0.00000	4234.27100
9.29241	0.00000	4234.27100
9.29624	0.00000	4234.27100
9.30009	0.00000	4234.27100
9.30393	0.00000	4234.27100
9.30776	0.00000	4231.16700
9.31160	0.00000	4231.16700
9.31544	0.00000	4231.16700
9.31926	0.00000	4231.16700
9.32310	0.00000	4231.16700
9.32693	0.00000	4203.33000
9.33077	0.00000	4203.33000
9.33461	0.00000	4203.33000
9.33845	0.00000	4203.33000
9.34229	0.00000	4203.33000
9.34613	0.00000	4234.27100
9.34997	0.00000	4234.27100
9.35380	0.00000	4234.27100
9.35765	0.00000	4234.27100
9.36148	0.00000	4234.27100
9.36532	0.00000	4234.27100
9.36916	0.00000	4209.49800
9.37299	0.00000	4209.49800
9.37682	0.00000	4209.49800
9.38065	0.00000	4209.49800
9.38449	0.00000	4209.49800
9.38834	0.00000	4224.95800
9.39217	0.00000	4224.95800
9.39601	0.00000	4224.95800
9.39985	0.00000	4224.95800
9.40369	0.00000	4224.95800
9.40753	0.00000	4231.16700
9.41137	0.00000	4231.16700
9.41520	0.00000	4231.16700
9.41904	0.00000	4231.16700
9.42288	0.00000	4231.16700
9.42670	0.00000	4215.64600
9.43053	0.00000	4215.64600
9.43437	0.00000	4215.64600
9.43821	0.00000	4215.64600
9.44204	0.00000	4215.64600
9.44586	0.00000	4221.85400
9.44970	0.00000	4221.85400
9.45354	0.00000	4221.85400
9.45739	0.00000	4221.85400
9.46123	0.00000	4221.85400
9.46505	0.00000	4228.06300
9.46891	0.00000	4228.06300
9.47275	0.00000	4228.06300
9.47659	0.00000	4228.06300
9.48043	0.00000	4228.06300
9.48426	0.00000	4228.06300
9.48809	0.00000	4209.49800
9.49194	0.00000	4209.49800
9.49578	0.00000	4209.49800
9.49961	0.00000	4209.49800
9.50345	0.00000	4209.49800
9.50726	0.00000	4224.95800
9.51109	0.00000	4224.95800
9.51492	0.00000	4224.95800
9.51875	0.00000	4224.95800
9.52259	0.00000	4224.95800
9.52642	0.00000	4215.64600
9.53025	0.00000	4215.64600
9.53409	0.00000	4215.64600
9.53794	0.00000	4215.64600
9.54202	0.00000	4215.64600
9.54601	0.00000	4215.64600
9.54992	0.00000	4215.64600
9.55377	0.00000	4215.64600
9.55763	0.00000	4215.64600
9.56147	0.00000	4215.64600
9.56529	0.00000	4212.54100
9.56913	0.00000	4212.54100
9.57298	0.00000	4212.54100
9.57682	0.00000	4212.54100
9.58064	0.00000	4212.54100
9.58448	0.00000	4221.85400
9.58832	0.00000	4221.85400
9.59216	0.00000	4221.85400
9.59599	0.00000	4221.85400
9.59983	0.00000	4221.85400
9.60366	0.00000	4221.85400
9.60751	0.00000	4221.85400
9.61135	0.00000	4221.85400
9.61519	0.00000	4221.85400
9.61901	0.00000	4221.85400
9.62284	0.00000	4221.85400
9.62667	0.00000	4206.41400
9.63051	0.00000	4206.41400
9.63436	0.00000	4206.41400
9.63819	0.00000	4206.41400
9.64203	0.00000	4206.41400
9.64586	0.00000	4218.75000
9.64969	0.00000	4218.75000
9.65353	0.00000	4218.75000
9.65736	0.00000	4218.75000
9.66119	0.00000	4218.75000
9.66502	0.00000	4206.33200
9.66887	0.00000	4206.33200
9.67271	0.00000	4206.33200
9.67655	0.00000	4206.33200
9.68039	0.00000	4206.33200
9.68423	0.00000	4231.16700
9.68806	0.00000	4231.16700
9.69190	0.00000	4231.16700
9.69574	0.00000	4231.16700
9.69956	0.00000	4231.16700
9.70339	0.00000	4209.43700
9.70723	0.00000	4209.43700
9.71108	0.00000	4209.43700
9.71492	0.00000	4209.43700
9.71876	0.00000	4209.43700
9.72259	0.00000	4218.75000
9.72642	0.00000	4218.75000
9.73025	0.00000	4218.75000
9.73409	0.00000	4218.75000
9.73792	0.00000	4218.75000
9.74176	0.00000	4209.43700
9.74560	0.00000	4209.43700
9.74945	0.00000	4209.43700
9.75329	0.00000	4209.43700
9.75712	0.00000	4209.43700
9.76096	0.00000	4209.43700
9.76480	0.00000	4206.41400
9.76864	0.00000	4206.41400
9.77248	0.00000	4206.41400
9.77632	0.00000	4206.41400
9.78016	0.00000	4206.41400
9.78420	0.00000	4218.75000
9.78828	0.00000	4218.75000
9.79232	0.00000	4218.75000
9.79631	0.00000	4218.75000
9.80018	0.00000	4218.75000
9.80403	0.00000	4221.85400
9.80787	0.00000	4221.85400
9.81172	0.00000	4221.85400
9.81556	0.00000	4221.85400
9.81941	0.00000	4221.85400
9.82324	0.00000	4224.95800
9.82709	0.00000	4224.95800
9.83093	0.00000	4224.95800
9.83477	0.00000	4224.95800
9.83861	0.00000	4224.95800
9.84244	0.00000	4212.54100
9.84627	0.00000	4212.54100
9.85010	0.00000	4212.54100
9.85394	0.00000	4212.54100
9.85778	0.00000	4212.54100
9.86162	0.00000	4209.43700
9.86547	0.00000	4209.43700
9.86930	0.00000	4209.43700
9.87312	0.00000	4209.43700
9.87695	0.00000	4209.43700
9.88078	0.00000	4209.43700
9.88463	0.00000	4209.43700
9.88847	0.00000	4209.43700
9.89230	0.00000	4209.43700
9.89612	0.00000	4209.43700
9.89995	0.00000	4215.64600
9.90377	0.00000	4215.64600
9.90761	0.00000	4215.64600
9.91144	0.00000	4215.64600
9.91526	0.00000	4215.64600
9.91909	0.00000	4215.64600
9.92292	0.00000	4228.06300
9.92676	0.00000	4228.06300
9.93062	0.00000	4228.06300
9.93467	0.00000	4228.06300
9.93881	0.00000	4228.06300
9.94285	0.00000	4221.85400
9.94678	0.00000	4221.85400
9.95068	0.00000	4221.85400
9.95458	0.00000	4221.85400
9.95891	0.00000	4221.85400
9.96296	0.00000	4212.54100
9.96694	0.00000	4212.54100
9.97193	0.00000	4212.54100
9.97613	0.00000	4212.54100
9.98012	0.00000	4215.62500
9.98400	0.00000	4215.62500
9.98798	0.00000	4215.62500
9.99185	0.00000	4215.62500
9.99570	0.00000	4215.62500
9.99954	0.00000	4224.95800
