Time (s)   Thrust (N)   RPM
0.00031	0.00000	4725.87700
0.00420	0.00000	4725.87700
0.00809	0.00000	4749.25100
0.01198	0.00000	4749.25100
0.01584	0.00000	4749.25100
0.01968	0.00000	4749.25100
0.02366	0.00000	4749.25100
0.02751	0.00000	4749.25100
0.03135	0.00000	4706.80200
0.03519	0.00000	4706.80200
0.03903	0.00000	4706.80200
0.04286	0.00000	4706.80200
0.04669	0.00000	4706.80200
0.05051	0.00000	4492.43000
0.05434	0.00000	4492.43000
0.05816	0.00000	4492.43000
0.06200	0.00000	4492.43000
0.06583	0.00000	4492.43000
0.06966	0.00000	4276.96000
0.07348	0.00000	4276.96000
0.07731	0.00000	4276.96000
0.08113	0.00000	4276.96000
0.08495	0.00000	4276.96000
0.08877	0.00000	4077.48300
0.09259	0.00000	4077.48300
0.09642	0.00000	4077.48300
0.10025	0.00000	4077.48300
0.10407	0.00000	4077.48300
0.10790	0.00000	3906.24900
0.11173	0.00000	3906.24900
0.11555	0.00000	3906.24900
0.11937	0.00000	3906.24900
0.12320	0.00000	3906.24900
0.12702	0.00000	3743.20600
0.13085	0.00000	3743.20600
0.13467	0.00000	3743.20600
0.13849	0.00000	3743.20600
0.14232	0.00000	3743.20600
0.14614	0.00000	3613.57200
0.14999	0.00000	3613.57200
0.15382	0.00000	3613.57200
0.15765	0.00000	3613.57200
0.16147	0.00000	3486.77800
0.16529	0.00000	3486.77800
0.16912	0.00000	3486.77800
0.17294	0.00000	3486.77800
0.17676	0.00000	3486.77800
0.18058	0.00000	3353.92400
0.18440	0.00000	3353.92400
0.18824	0.00000	3353.92400
0.19206	0.00000	3353.92400
0.19589	0.00000	3262.64900
0.19972	0.00000	3262.64900
0.20354	0.00000	3262.64900
0.20737	0.00000	3262.64900
0.21119	0.00000	3167.84200
0.21502	0.00000	3167.84200
0.21884	0.00000	3167.84200
0.22267	0.00000	3167.84200
0.22650	0.00000	3060.21300
0.23033	0.00000	3060.21300
0.23416	0.00000	3060.21300
0.23800	0.00000	3060.21300
0.24182	0.00000	2994.57600
0.24564	0.00000	2994.57600
0.24946	0.00000	2994.57600
0.25328	0.00000	2994.57600
0.25710	0.00000	2994.57600
0.26093	0.00000	2910.15600
0.26475	0.00000	2910.15600
0.26858	0.00000	2910.15600
0.27240	0.00000	2910.15600
0.27623	0.00000	2852.22400
0.28005	0.00000	2852.22400
0.28388	0.00000	2852.22400
0.28771	0.00000	2852.22400
0.29153	0.00000	2784.45500
0.29537	0.00000	2784.45500
0.29920	0.00000	2784.45500
0.30302	0.00000	2784.45500
0.30686	0.00000	2723.59900
0.31068	0.00000	2723.59900
0.31450	0.00000	2723.59900
0.31832	0.00000	2723.59900
0.32215	0.00000	2665.76000
0.32598	0.00000	2665.76000
0.32981	0.00000	2665.76000
0.33363	0.00000	2625.82900
0.33745	0.00000	2625.82900
0.34128	0.00000	2625.82900
0.34512	0.00000	2625.82900
0.34895	0.00000	2582.31000
0.35277	0.00000	2582.31000
0.35659	0.00000	2582.31000
0.36040	0.00000	2582.31000
0.36423	0.00000	2532.08700
0.36806	0.00000	2532.08700
0.37188	0.00000	2532.08700
0.37570	0.00000	2532.08700
0.37952	0.00000	2495.77600
0.38334	0.00000	2495.77600
0.38717	0.00000	2495.77600
0.39099	0.00000	2495.77600
0.39481	0.00000	2449.32400
0.39863	0.00000	2449.32400
0.40245	0.00000	2449.32400
0.40627	0.00000	2449.32400
0.41020	0.00000	2416.19300
0.41411	0.00000	2416.19300
0.41796	0.00000	2416.19300
0.42180	0.00000	2369.55200
0.42563	0.00000	2369.55200
0.42946	0.00000	2369.55200
0.43328	0.00000	2369.55200
0.43711	0.00000	2335.14900
0.44094	0.00000	2335.14900
0.44476	0.00000	2335.14900
0.44858	0.00000	2335.14900
0.45241	0.00000	2305.04600
0.45624	0.00000	2305.04600
0.46006	0.00000	2305.04600
0.46389	0.00000	2305.04600
0.46770	0.00000	2278.64500
0.47153	0.00000	2278.64500
0.47535	0.00000	2278.64500
0.47918	0.00000	2272.99500
0.48301	0.00000	2272.99500
0.48683	0.00000	2272.99500
0.49066	0.00000	2272.99500
0.49448	0.00000	2234.22900
0.49830	0.00000	2234.22900
0.50212	0.00000	2234.22900
0.50595	0.00000	2234.22900
0.50976	0.00000	2199.18200
0.51359	0.00000	2199.18200
0.51741	0.00000	2199.18200
0.52125	0.00000	2191.96400
0.52508	0.00000	2191.96400
0.52890	0.00000	2191.96400
0.53272	0.00000	2191.96400
0.53655	0.00000	2153.59700
0.54036	0.00000	2153.59700
0.54419	0.00000	2153.59700
0.54801	0.00000	2153.59700
0.55184	0.00000	2127.06300
0.55566	0.00000	2127.06300
0.55949	0.00000	2127.06300
0.56331	0.00000	2102.67800
0.56714	0.00000	2102.67800
0.57097	0.00000	2102.67800
0.57479	0.00000	2102.67800
0.57861	0.00000	2093.75000
0.58244	0.00000	2093.75000
0.58627	0.00000	2093.75000
0.59009	0.00000	2093.75000
0.59390	0.00000	2082.33100
0.59772	0.00000	2082.33100
0.60154	0.00000	2082.33100
0.60536	0.00000	2070.69100
0.60918	0.00000	2070.69100
0.61300	0.00000	2070.69100
0.61682	0.00000	2070.69100
0.62064	0.00000	2046.27400
0.62445	0.00000	2046.27400
0.62827	0.00000	2046.27400
0.63210	0.00000	2025.18200
0.63593	0.00000	2025.18200
0.63975	0.00000	2025.18200
0.64357	0.00000	2025.18200
0.64739	0.00000	2010.21600
0.65122	0.00000	2010.21600
0.65504	0.00000	2010.21600
0.65886	0.00000	1988.77400
0.66268	0.00000	1988.77400
0.66650	0.00000	1988.77400
0.67032	0.00000	1988.77400
0.67414	0.00000	1975.12100
0.67797	0.00000	1975.12100
0.68178	0.00000	1975.12100
0.68561	0.00000	1975.12100
0.68943	0.00000	1966.01900
0.69324	0.00000	1966.01900
0.69706	0.00000	1966.01900
0.70088	0.00000	1943.26400
0.70471	0.00000	1943.26400
0.70852	0.00000	1943.26400
0.71235	0.00000	1943.26400
0.71620	0.00000	1938.71300
0.72003	0.00000	1938.71300
0.72386	0.00000	1938.71300
0.72768	0.00000	1925.55100
0.73150	0.00000	1925.55100
0.73532	0.00000	1925.55100
0.73917	0.00000	1925.55100
0.74300	0.00000	1930.14700
0.74683	0.00000	1930.14700
0.75065	0.00000	1930.14700
0.75447	0.00000	1921.41000
0.75830	0.00000	1921.41000
0.76212	0.00000	1921.41000
0.76594	0.00000	1921.41000
0.76976	0.00000	1902.57300
0.77359	0.00000	1902.57300
0.77742	0.00000	1902.57300
0.78124	0.00000	1875.00000
0.78506	0.00000	1875.00000
0.78888	0.00000	1875.00000
0.79270	0.00000	1875.00000
0.79653	0.00000	1879.59500
0.80035	0.00000	1879.59500
0.80417	0.00000	1879.59500
0.80799	0.00000	1852.02200
0.81182	0.00000	1852.02200
0.81565	0.00000	1852.02200
0.81947	0.00000	1852.02200
0.82329	0.00000	1852.02200
0.82710	0.00000	1852.02200
0.83093	0.00000	1852.02200
0.83475	0.00000	1856.43500
0.83858	0.00000	1856.43500
0.84240	0.00000	1856.43500
0.84618	0.00000	1856.43500
0.85001	0.00000	1851.79400
0.85383	0.00000	1851.79400
0.85765	0.00000	1851.79400
0.86147	0.00000	1833.23000
0.86529	0.00000	1833.23000
0.86911	0.00000	1833.23000
0.87294	0.00000	1833.23000
0.87677	0.00000	1828.58900
0.88059	0.00000	1828.58900
0.88441	0.00000	1828.58900
0.88823	0.00000	1814.66500
0.89205	0.00000	1814.66500
0.89588	0.00000	1814.66500
0.89970	0.00000	1814.66500
0.90352	0.00000	1823.94800
0.90733	0.00000	1823.94800
0.91115	0.00000	1823.94800
0.91498	0.00000	1818.75000
0.91881	0.00000	1818.75000
0.92263	0.00000	1818.75000
0.92646	0.00000	1818.75000
0.93028	0.00000	1805.38300
0.93410	0.00000	1805.38300
0.93792	0.00000	1805.38300
0.94175	0.00000	1804.68700
0.94559	0.00000	1804.68700
0.94941	0.00000	1804.68700
0.95324	0.00000	1804.68700
0.95707	0.00000	1809.37500
0.96090	0.00000	1809.37500
0.96473	0.00000	1809.37500
0.96856	0.00000	1790.62500
0.97239	0.00000	1790.62500
0.97623	0.00000	1790.62500
0.98005	0.00000	1790.62500
0.98388	0.00000	1777.53700
0.98771	0.00000	1777.53700
0.99153	0.00000	1777.53700
0.99535	0.00000	1781.25000
0.99918	0.00000	1781.25000
1.00301	0.00000	1781.25000
1.00683	0.00000	1781.25000
1.01068	0.00000	1785.93700
1.01454	0.00000	1785.93700
1.01837	0.00000	1785.93700
1.02218	0.00000	1771.87500
1.02601	0.00000	1771.87500
1.02983	0.00000	1771.87500
1.03365	0.00000	1771.87500
1.03747	0.00000	1776.56200
1.04129	0.00000	1776.56200
1.04512	0.00000	1776.56200
1.04894	0.00000	1753.12500
1.05277	0.00000	1753.12500
1.05659	0.00000	1753.12500
1.06041	0.00000	1753.12500
1.06423	0.00000	1757.81200
1.06806	0.00000	1757.81200
1.07188	0.00000	1757.81200
1.07570	0.00000	1766.09800
1.07952	0.00000	1766.09800
1.08335	0.00000	1766.09800
1.08717	0.00000	1761.36300
1.09100	0.00000	1761.36300
1.09482	0.00000	1761.36300
1.09865	0.00000	1761.36300
1.10246	0.00000	1748.43700
1.10629	0.00000	1748.43700
1.11012	0.00000	1748.43700
1.11394	0.00000	1734.37500
1.11776	0.00000	1734.37500
1.12158	0.00000	1734.37500
1.12541	0.00000	1734.37500
1.12922	0.00000	1743.75000
1.13304	0.00000	1743.75000
1.13686	0.00000	1743.75000
1.14068	0.00000	1734.37500
1.14450	0.00000	1734.37500
1.14832	0.00000	1734.37500
1.15215	0.00000	1734.37500
1.15597	0.00000	1739.06200
1.15978	0.00000	1739.06200
1.16362	0.00000	1739.06200
1.16744	0.00000	1742.42400
1.17126	0.00000	1742.42400
1.17508	0.00000	1742.42400
1.17891	0.00000	1742.42400
1.18273	0.00000	1729.68700
1.18655	0.00000	1729.68700
1.19037	0.00000	1729.68700
1.19418	0.00000	1737.68900
1.19800	0.00000	1737.68900
1.20182	0.00000	1737.68900
1.20563	0.00000	1737.68900
1.20945	0.00000	1737.68900
1.21328	0.00000	1737.68900
1.21710	0.00000	1737.68900
1.22092	0.00000	1732.95400
1.22478	0.00000	1732.95400
1.22862	0.00000	1732.95400
1.23244	0.00000	1710.93700
1.23629	0.00000	1710.93700
1.24011	0.00000	1710.93700
1.24393	0.00000	1710.93700
1.24775	0.00000	1720.31200
1.25157	0.00000	1720.31200
1.25539	0.00000	1720.31200
1.25922	0.00000	1718.75000
1.26305	0.00000	1718.75000
1.26687	0.00000	1718.75000
1.27069	0.00000	1718.75000
1.27451	0.00000	1720.31200
1.27833	0.00000	1720.31200
1.28215	0.00000	1720.31200
1.28599	0.00000	1718.75000
1.28981	0.00000	1718.75000
1.29363	0.00000	1718.75000
1.29745	0.00000	1718.75000
1.30127	0.00000	1723.48400
1.30509	0.00000	1723.48400
1.30892	0.00000	1723.48400
1.31274	0.00000	1714.01500
1.31656	0.00000	1714.01500
1.32038	0.00000	1714.01500
1.32421	0.00000	1714.01500
1.32802	0.00000	1714.01500
1.33185	0.00000	1714.01500
1.33567	0.00000	1714.01500
1.33949	0.00000	1714.01500
1.34331	0.00000	1714.01500
1.34714	0.00000	1714.01500
1.35096	0.00000	1714.01500
1.35478	0.00000	1714.01500
1.35860	0.00000	1714.01500
1.36242	0.00000	1714.01500
1.36624	0.00000	1696.87500
1.37006	0.00000	1696.87500
1.37387	0.00000	1696.87500
1.37770	0.00000	1709.28000
1.38152	0.00000	1709.28000
1.38534	0.00000	1709.28000
1.38916	0.00000	1709.28000
1.39298	0.00000	1701.56200
1.39680	0.00000	1701.56200
1.40062	0.00000	1701.56200
1.40444	0.00000	1704.54500
1.40826	0.00000	1704.54500
1.41208	0.00000	1704.54500
1.41591	0.00000	1704.54500
1.41973	0.00000	1714.01500
1.42355	0.00000	1714.01500
1.42737	0.00000	1714.01500
1.43119	0.00000	1704.54500
1.43501	0.00000	1704.54500
1.43883	0.00000	1704.54500
1.44265	0.00000	1699.81000
1.44647	0.00000	1699.81000
1.45029	0.00000	1699.81000
1.45412	0.00000	1699.81000
1.45794	0.00000	1704.54500
1.46176	0.00000	1704.54500
1.46558	0.00000	1704.54500
1.46939	0.00000	1695.07500
1.47322	0.00000	1695.07500
1.47704	0.00000	1695.07500
1.48087	0.00000	1695.07500
1.48470	0.00000	1692.18700
1.48852	0.00000	1692.18700
1.49234	0.00000	1692.18700
1.49617	0.00000	1690.34000
1.49999	0.00000	1690.34000
1.50381	0.00000	1690.34000
1.50763	0.00000	1690.34000
1.51145	0.00000	1704.54500
1.51527	0.00000	1704.54500
1.51909	0.00000	1704.54500
1.52292	0.00000	1712.37200
1.52674	0.00000	1712.37200
1.53056	0.00000	1712.37200
1.53439	0.00000	1690.34000
1.53818	0.00000	1690.34000
1.54200	0.00000	1690.34000
1.54582	0.00000	1690.34000
1.54965	0.00000	1699.81000
1.55347	0.00000	1699.81000
1.55729	0.00000	1699.81000
1.56112	0.00000	1695.07500
1.56494	0.00000	1695.07500
1.56875	0.00000	1695.07500
1.57258	0.00000	1695.07500
1.57640	0.00000	1682.81200
1.58023	0.00000	1682.81200
1.58405	0.00000	1682.81200
1.58786	0.00000	1685.60600
1.59169	0.00000	1685.60600
1.59551	0.00000	1685.60600
1.59933	0.00000	1685.60600
1.60316	0.00000	1682.81200
1.60697	0.00000	1682.81200
1.61079	0.00000	1682.81200
1.61461	0.00000	1685.60600
1.61844	0.00000	1685.60600
1.62226	0.00000	1685.60600
1.62608	0.00000	1685.60600
1.62990	0.00000	1685.60600
1.63371	0.00000	1685.60600
1.63754	0.00000	1685.60600
1.64136	0.00000	1685.60600
1.64517	0.00000	1685.60600
1.64900	0.00000	1685.60600
1.65282	0.00000	1685.60600
1.65664	0.00000	1685.60600
1.66047	0.00000	1685.60600
1.66429	0.00000	1685.60600
1.66811	0.00000	1699.81000
1.67194	0.00000	1699.81000
1.67576	0.00000	1699.81000
1.67959	0.00000	1685.60600
1.68340	0.00000	1685.60600
1.68722	0.00000	1685.60600
1.69104	0.00000	1685.60600
1.69486	0.00000	1695.07500
1.69868	0.00000	1695.07500
1.70250	0.00000	1695.07500
1.70633	0.00000	1685.60600
1.71015	0.00000	1685.60600
1.71397	0.00000	1685.60600
1.71779	0.00000	1685.60600
1.72161	0.00000	1685.60600
1.72543	0.00000	1685.60600
1.72925	0.00000	1685.60600
1.73307	0.00000	1685.60600
1.73689	0.00000	1685.60600
1.74071	0.00000	1685.60600
1.74453	0.00000	1698.02300
1.74836	0.00000	1698.02300
1.75219	0.00000	1698.02300
1.75601	0.00000	1698.02300
1.75983	0.00000	1695.07500
1.76366	0.00000	1695.07500
1.76748	0.00000	1695.07500
1.77130	0.00000	1698.02300
1.77512	0.00000	1698.02300
1.77894	0.00000	1698.02300
1.78276	0.00000	1698.02300
1.78657	0.00000	1690.34000
1.79040	0.00000	1690.34000
1.79418	0.00000	1690.34000
1.79801	0.00000	1680.87100
1.80182	0.00000	1680.87100
1.80564	0.00000	1680.87100
1.80947	0.00000	1680.87100
1.81328	0.00000	1685.60600
1.81710	0.00000	1685.60600
1.82092	0.00000	1685.60600
1.82474	0.00000	1680.87100
1.82856	0.00000	1680.87100
1.83239	0.00000	1680.87100
1.83620	0.00000	1680.87100
1.84003	0.00000	1680.87100
1.84384	0.00000	1680.87100
1.84766	0.00000	1680.87100
1.85149	0.00000	1673.43700
1.85531	0.00000	1673.43700
1.85913	0.00000	1673.43700
1.86295	0.00000	1676.13600
1.86677	0.00000	1676.13600
1.87059	0.00000	1676.13600
1.87441	0.00000	1676.13600
1.87824	0.00000	1678.12500
1.88207	0.00000	1678.12500
1.88590	0.00000	1678.12500
1.88972	0.00000	1680.87100
1.89354	0.00000	1680.87100
1.89736	0.00000	1680.87100
1.90118	0.00000	1680.87100
1.90501	0.00000	1680.87100
1.90882	0.00000	1680.87100
1.91265	0.00000	1680.87100
1.91647	0.00000	1698.02300
1.92029	0.00000	1698.02300
1.92411	0.00000	1698.02300
1.92793	0.00000	1693.23900
1.93177	0.00000	1693.23900
1.93559	0.00000	1693.23900
1.93940	0.00000	1693.23900
1.94323	0.00000	1690.34000
1.94705	0.00000	1690.34000
1.95087	0.00000	1690.34000
1.95470	0.00000	1676.13600
1.95853	0.00000	1676.13600
1.96235	0.00000	1676.13600
1.96617	0.00000	1676.13600
1.97000	0.00000	1685.60600
1.97382	0.00000	1685.60600
1.97764	0.00000	1685.60600
1.98147	0.00000	1676.13600
1.98529	0.00000	1676.13600
1.98912	0.00000	1676.13600
1.99296	0.00000	1680.87100
1.99678	0.00000	1680.87100
2.00060	0.00000	1680.87100
2.00442	0.00000	1680.87100
2.00825	0.00000	1676.13600
2.01211	0.00000	1676.13600
2.01595	0.00000	1676.13600
2.01978	0.00000	1680.87100
2.02360	0.00000	1680.87100
2.02742	0.00000	1680.87100
2.03125	0.00000	1680.87100
2.03506	0.00000	1685.60600
2.03888	0.00000	1685.60600
2.04270	0.00000	1685.60600
2.04652	0.00000	1698.02300
2.05034	0.00000	1698.02300
2.05417	0.00000	1698.02300
2.05800	0.00000	1698.02300
2.06181	0.00000	1690.34000
2.06564	0.00000	1690.34000
2.06946	0.00000	1690.34000
2.07329	0.00000	1676.13600
2.07711	0.00000	1676.13600
2.08093	0.00000	1676.13600
2.08475	0.00000	1693.23900
2.08857	0.00000	1693.23900
2.09239	0.00000	1693.23900
2.09621	0.00000	1693.23900
2.10004	0.00000	1680.87100
2.10385	0.00000	1680.87100
2.10768	0.00000	1680.87100
2.11151	0.00000	1671.40100
2.11534	0.00000	1671.40100
2.11915	0.00000	1671.40100
2.12297	0.00000	1671.40100
2.12679	0.00000	1673.43700
2.13062	0.00000	1673.43700
2.13444	0.00000	1673.43700
2.13826	0.00000	1676.13600
2.14209	0.00000	1676.13600
2.14591	0.00000	1676.13600
2.14974	0.00000	1676.13600
2.15356	0.00000	1685.60600
2.15738	0.00000	1685.60600
2.16120	0.00000	1685.60600
2.16503	0.00000	1698.02300
2.16885	0.00000	1698.02300
2.17268	0.00000	1698.02300
2.17650	0.00000	1680.87100
2.18032	0.00000	1680.87100
2.18415	0.00000	1680.87100
2.18797	0.00000	1680.87100
2.19179	0.00000	1680.87100
2.19560	0.00000	1680.87100
2.19942	0.00000	1680.87100
2.20324	0.00000	1676.13600
2.20706	0.00000	1676.13600
2.21089	0.00000	1676.13600
2.21471	0.00000	1676.13600
2.21853	0.00000	1685.60600
2.22235	0.00000	1685.60600
2.22618	0.00000	1685.60600
2.23000	0.00000	1676.13600
2.23382	0.00000	1676.13600
2.23764	0.00000	1676.13600
2.24146	0.00000	1676.13600
2.24528	0.00000	1673.43700
2.24910	0.00000	1673.43700
2.25292	0.00000	1673.43700
2.25675	0.00000	1676.13600
2.26057	0.00000	1676.13600
2.26440	0.00000	1676.13600
2.26823	0.00000	1676.13600
2.27205	0.00000	1676.13600
2.27587	0.00000	1676.13600
2.27969	0.00000	1676.13600
2.28351	0.00000	1676.13600
2.28734	0.00000	1676.13600
2.29116	0.00000	1676.13600
2.29498	0.00000	1693.23900
2.29880	0.00000	1693.23900
2.30262	0.00000	1693.23900
2.30644	0.00000	1693.23900
2.31026	0.00000	1685.60600
2.31409	0.00000	1685.60600
2.31791	0.00000	1685.60600
2.32173	0.00000	1676.13600
2.32556	0.00000	1676.13600
2.32938	0.00000	1676.13600
2.33321	0.00000	1676.13600
2.33702	0.00000	1668.75000
2.34085	0.00000	1668.75000
2.34468	0.00000	1668.75000
2.34850	0.00000	1676.13600
2.35232	0.00000	1676.13600
2.35614	0.00000	1676.13600
2.35997	0.00000	1676.13600
2.36380	0.00000	1676.13600
2.36762	0.00000	1676.13600
2.37144	0.00000	1676.13600
2.37527	0.00000	1664.06200
2.37909	0.00000	1664.06200
2.38291	0.00000	1664.06200
2.38674	0.00000	1693.23900
2.39057	0.00000	1693.23900
2.39439	0.00000	1693.23900
2.39818	0.00000	1693.23900
2.40200	0.00000	1685.60600
2.40581	0.00000	1685.60600
2.40963	0.00000	1685.60600
2.41345	0.00000	1698.02300
2.41727	0.00000	1698.02300
2.42109	0.00000	1698.02300
2.42492	0.00000	1698.02300
2.42874	0.00000	1680.87100
2.43256	0.00000	1680.87100
2.43638	0.00000	1680.87100
2.44020	0.00000	1676.13600
2.44403	0.00000	1676.13600
2.44784	0.00000	1676.13600
2.45167	0.00000	1676.13600
2.45549	0.00000	1676.13600
2.45931	0.00000	1676.13600
2.46313	0.00000	1676.13600
2.46695	0.00000	1680.87100
2.47077	0.00000	1680.87100
2.47459	0.00000	1680.87100
2.47842	0.00000	1680.87100
2.48225	0.00000	1680.87100
2.48608	0.00000	1680.87100
2.48989	0.00000	1680.87100
2.49371	0.00000	1673.43700
2.49753	0.00000	1673.43700
2.50135	0.00000	1673.43700
2.50518	0.00000	1688.45600
2.50900	0.00000	1688.45600
2.51282	0.00000	1688.45600
2.51664	0.00000	1688.45600
2.52047	0.00000	1685.60600
2.52429	0.00000	1685.60600
2.52810	0.00000	1685.60600
2.53193	0.00000	1698.02300
2.53575	0.00000	1698.02300
2.53957	0.00000	1698.02300
2.54339	0.00000	1693.23900
2.54722	0.00000	1693.23900
2.55105	0.00000	1693.23900
2.55487	0.00000	1693.23900
2.55870	0.00000	1685.60600
2.56253	0.00000	1685.60600
2.56635	0.00000	1685.60600
2.57016	0.00000	1676.13600
2.57399	0.00000	1676.13600
2.57781	0.00000	1676.13600
2.58163	0.00000	1676.13600
2.58545	0.00000	1668.75000
2.58928	0.00000	1668.75000
2.59309	0.00000	1668.75000
2.59691	0.00000	1676.13600
2.60074	0.00000	1676.13600
2.60457	0.00000	1676.13600
2.60840	0.00000	1676.13600
2.61221	0.00000	1680.87100
2.61603	0.00000	1680.87100
2.61985	0.00000	1680.87100
2.62368	0.00000	1693.23900
2.62750	0.00000	1693.23900
2.63131	0.00000	1693.23900
2.63513	0.00000	1693.23900
2.63896	0.00000	1693.23900
2.64278	0.00000	1693.23900
2.64660	0.00000	1693.23900
2.65042	0.00000	1680.87100
2.65424	0.00000	1680.87100
2.65806	0.00000	1680.87100
2.66187	0.00000	1676.13600
2.66569	0.00000	1676.13600
2.66951	0.00000	1676.13600
2.67333	0.00000	1676.13600
2.67715	0.00000	1668.75000
2.68096	0.00000	1668.75000
2.68478	0.00000	1668.75000
2.68860	0.00000	1671.40100
2.69243	0.00000	1671.40100
2.69625	0.00000	1671.40100
2.70007	0.00000	1671.40100
2.70389	0.00000	1680.87100
2.70772	0.00000	1680.87100
2.71153	0.00000	1680.87100
2.71535	0.00000	1693.23900
2.71918	0.00000	1693.23900
2.72300	0.00000	1693.23900
2.72682	0.00000	1693.23900
2.73065	0.00000	1693.23900
2.73447	0.00000	1693.23900
2.73829	0.00000	1693.23900
2.74212	0.00000	1685.60600
2.74594	0.00000	1685.60600
2.74976	0.00000	1685.60600
2.75358	0.00000	1671.40100
2.75740	0.00000	1671.40100
2.76124	0.00000	1671.40100
2.76506	0.00000	1671.40100
2.76888	0.00000	1673.43700
2.77271	0.00000	1673.43700
2.77653	0.00000	1673.43700
2.78035	0.00000	1680.87100
2.78417	0.00000	1680.87100
2.78799	0.00000	1680.87100
2.79181	0.00000	1676.13600
2.79563	0.00000	1676.13600
2.79945	0.00000	1676.13600
2.80327	0.00000	1676.13600
2.80710	0.00000	1680.87100
2.81093	0.00000	1680.87100
2.81474	0.00000	1680.87100
2.81856	0.00000	1671.40100
2.82238	0.00000	1671.40100
2.82618	0.00000	1671.40100
2.83000	0.00000	1671.40100
2.83381	0.00000	1685.60600
2.83763	0.00000	1685.60600
2.84145	0.00000	1685.60600
2.84527	0.00000	1693.23900
2.84909	0.00000	1693.23900
2.85291	0.00000	1693.23900
2.85673	0.00000	1693.23900
2.86055	0.00000	1690.34000
2.86438	0.00000	1690.34000
2.86820	0.00000	1690.34000
2.87202	0.00000	1680.87100
2.87585	0.00000	1680.87100
2.87968	0.00000	1680.87100
2.88350	0.00000	1698.02300
2.88732	0.00000	1698.02300
2.89114	0.00000	1698.02300
2.89496	0.00000	1698.02300
2.89878	0.00000	1676.13600
2.90261	0.00000	1676.13600
2.90643	0.00000	1676.13600
2.91025	0.00000	1676.13600
2.91408	0.00000	1676.13600
2.91789	0.00000	1676.13600
2.92172	0.00000	1676.13600
2.92554	0.00000	1673.43700
2.92936	0.00000	1673.43700
2.93318	0.00000	1673.43700
2.93701	0.00000	1671.40100
2.94083	0.00000	1671.40100
2.94465	0.00000	1671.40100
2.94847	0.00000	1671.40100
2.95229	0.00000	1690.34000
2.95611	0.00000	1690.34000
2.95993	0.00000	1690.34000
2.96376	0.00000	1693.23900
2.96759	0.00000	1693.23900
2.97160	0.00000	1693.23900
2.97556	0.00000	1693.23900
2.97944	0.00000	1693.23900
2.98328	0.00000	1693.23900
2.98710	0.00000	1693.23900
2.99092	0.00000	1685.60600
2.99475	0.00000	1685.60600
2.99858	0.00000	1685.60600
3.00240	0.00000	1671.40100
3.00620	0.00000	1671.40100
3.01010	0.00000	1671.40100
3.01394	0.00000	1671.40100
3.01777	0.00000	1673.43700
3.02159	0.00000	1673.43700
3.02542	0.00000	1673.43700
3.02925	0.00000	1680.87100
3.03307	0.00000	1680.87100
3.03689	0.00000	1680.87100
3.04072	0.00000	1680.87100
3.04454	0.00000	1680.87100
3.04837	0.00000	1680.87100
3.05220	0.00000	1680.87100
3.05602	0.00000	1680.87100
3.05984	0.00000	1680.87100
3.06367	0.00000	1680.87100
3.06749	0.00000	1676.13600
3.07184	0.00000	1676.13600
3.07574	0.00000	1676.13600
3.07959	0.00000	1676.13600
3.08341	0.00000	1685.60600
3.08724	0.00000	1685.60600
3.09106	0.00000	1685.60600
3.09488	0.00000	1693.23900
3.09870	0.00000	1693.23900
3.10253	0.00000	1693.23900
3.10636	0.00000	1693.23900
3.11018	0.00000	1693.23900
3.11400	0.00000	1693.23900
3.11781	0.00000	1693.23900
3.12164	0.00000	1680.87100
3.12546	0.00000	1680.87100
3.12928	0.00000	1680.87100
3.13311	0.00000	1676.13600
3.13693	0.00000	1676.13600
3.14075	0.00000	1676.13600
3.14457	0.00000	1676.13600
3.14839	0.00000	1668.75000
3.15222	0.00000	1668.75000
3.15605	0.00000	1668.75000
3.15986	0.00000	1676.13600
3.16369	0.00000	1676.13600
3.16751	0.00000	1676.13600
3.17135	0.00000	1676.13600
3.17516	0.00000	1680.87100
3.17899	0.00000	1680.87100
3.18281	0.00000	1680.87100
3.18663	0.00000	1688.45600
3.19046	0.00000	1688.45600
3.19427	0.00000	1688.45600
3.19810	0.00000	1676.13600
3.20193	0.00000	1676.13600
3.20576	0.00000	1676.13600
3.20959	0.00000	1676.13600
3.21341	0.00000	1680.87100
3.21722	0.00000	1680.87100
3.22105	0.00000	1680.87100
3.22487	0.00000	1676.13600
3.22869	0.00000	1676.13600
3.23251	0.00000	1676.13600
3.23634	0.00000	1676.13600
3.24016	0.00000	1690.34000
3.24399	0.00000	1690.34000
3.24781	0.00000	1690.34000
3.25164	0.00000	1671.40100
3.25546	0.00000	1671.40100
3.25929	0.00000	1671.40100
3.26311	0.00000	1671.40100
3.26693	0.00000	1680.87100
3.27075	0.00000	1680.87100
3.27457	0.00000	1680.87100
3.27839	0.00000	1676.13600
3.28218	0.00000	1676.13600
3.28600	0.00000	1676.13600
3.28982	0.00000	1676.13600
3.29365	0.00000	1676.13600
3.29747	0.00000	1676.13600
3.30129	0.00000	1676.13600
3.30511	0.00000	1685.60600
3.30893	0.00000	1685.60600
3.31275	0.00000	1685.60600
3.31657	0.00000	1698.02300
3.32039	0.00000	1698.02300
3.32421	0.00000	1698.02300
3.32804	0.00000	1698.02300
3.33185	0.00000	1680.87100
3.33567	0.00000	1680.87100
3.33949	0.00000	1680.87100
3.34332	0.00000	1676.13600
3.34713	0.00000	1676.13600
3.35095	0.00000	1676.13600
3.35478	0.00000	1676.13600
3.35860	0.00000	1680.87100
3.36243	0.00000	1680.87100
3.36624	0.00000	1680.87100
3.37006	0.00000	1676.13600
3.37388	0.00000	1676.13600
3.37770	0.00000	1676.13600
3.38152	0.00000	1676.13600
3.38535	0.00000	1676.13600
3.38917	0.00000	1676.13600
3.39299	0.00000	1676.13600
3.39680	0.00000	1685.60600
3.40062	0.00000	1685.60600
3.40445	0.00000	1685.60600
3.40827	0.00000	1680.87100
3.41208	0.00000	1680.87100
3.41590	0.00000	1680.87100
3.41972	0.00000	1680.87100
3.42354	0.00000	1690.34000
3.42736	0.00000	1690.34000
3.43119	0.00000	1690.34000
3.43501	0.00000	1693.23900
3.43883	0.00000	1693.23900
3.44265	0.00000	1693.23900
3.44647	0.00000	1693.23900
3.45029	0.00000	1680.87100
3.45412	0.00000	1680.87100
3.45793	0.00000	1680.87100
3.46176	0.00000	1676.13600
3.46558	0.00000	1676.13600
3.46940	0.00000	1676.13600
3.47323	0.00000	1680.87100
3.47705	0.00000	1680.87100
3.48087	0.00000	1680.87100
3.48469	0.00000	1680.87100
3.48851	0.00000	1685.60600
3.49233	0.00000	1685.60600
3.49615	0.00000	1685.60600
3.49997	0.00000	1676.13600
3.50379	0.00000	1676.13600
3.50762	0.00000	1676.13600
3.51144	0.00000	1676.13600
3.51527	0.00000	1685.60600
3.51909	0.00000	1685.60600
3.52291	0.00000	1685.60600
3.52673	0.00000	1676.13600
3.53056	0.00000	1676.13600
3.53438	0.00000	1676.13600
3.53818	0.00000	1676.13600
3.54200	0.00000	1680.87100
3.54581	0.00000	1680.87100
3.54964	0.00000	1680.87100
3.55346	0.00000	1676.13600
3.55727	0.00000	1676.13600
3.56110	0.00000	1676.13600
3.56492	0.00000	1693.23900
3.56875	0.00000	1693.23900
3.57257	0.00000	1693.23900
3.57639	0.00000	1693.23900
3.58021	0.00000	1690.34000
3.58403	0.00000	1690.34000
3.58785	0.00000	1690.34000
3.59167	0.00000	1680.87100
3.59549	0.00000	1680.87100
3.59930	0.00000	1680.87100
3.60312	0.00000	1680.87100
3.60695	0.00000	1668.75000
3.61078	0.00000	1668.75000
3.61460	0.00000	1668.75000
3.61842	0.00000	1676.13600
3.62224	0.00000	1676.13600
3.62607	0.00000	1676.13600
3.62988	0.00000	1676.13600
3.63370	0.00000	1680.87100
3.63753	0.00000	1680.87100
3.64135	0.00000	1680.87100
3.64518	0.00000	1693.23900
3.64900	0.00000	1693.23900
3.65282	0.00000	1693.23900
3.65664	0.00000	1693.23900
3.66046	0.00000	1693.23900
3.66428	0.00000	1693.23900
3.66811	0.00000	1693.23900
3.67194	0.00000	1690.34000
3.67576	0.00000	1690.34000
3.67958	0.00000	1690.34000
3.68340	0.00000	1693.23900
3.68723	0.00000	1693.23900
3.69105	0.00000	1693.23900
3.69487	0.00000	1693.23900
3.69869	0.00000	1685.60600
3.70251	0.00000	1685.60600
3.70633	0.00000	1685.60600
3.71015	0.00000	1680.87100
3.71397	0.00000	1680.87100
3.71780	0.00000	1680.87100
3.72162	0.00000	1680.87100
3.72544	0.00000	1680.87100
3.72926	0.00000	1680.87100
3.73308	0.00000	1680.87100
3.73690	0.00000	1680.87100
3.74072	0.00000	1680.87100
3.74455	0.00000	1680.87100
3.74837	0.00000	1680.87100
3.75219	0.00000	1680.87100
3.75601	0.00000	1680.87100
3.75983	0.00000	1680.87100
3.76365	0.00000	1668.75000
3.76748	0.00000	1668.75000
3.77131	0.00000	1668.75000
3.77512	0.00000	1676.13600
3.77894	0.00000	1676.13600
3.78277	0.00000	1676.13600
3.78659	0.00000	1676.13600
3.79040	0.00000	1685.60600
3.79418	0.00000	1685.60600
3.79800	0.00000	1685.60600
3.80183	0.00000	1693.23900
3.80565	0.00000	1693.23900
3.80946	0.00000	1693.23900
3.81330	0.00000	1693.23900
3.81711	0.00000	1685.60600
3.82093	0.00000	1685.60600
3.82475	0.00000	1685.60600
3.82857	0.00000	1676.13600
3.83239	0.00000	1676.13600
3.83622	0.00000	1676.13600
3.84004	0.00000	1680.87100
3.84387	0.00000	1680.87100
3.84768	0.00000	1680.87100
3.85150	0.00000	1680.87100
3.85532	0.00000	1668.75000
3.85914	0.00000	1668.75000
3.86296	0.00000	1668.75000
3.86678	0.00000	1671.40100
3.87060	0.00000	1671.40100
3.87443	0.00000	1671.40100
3.87826	0.00000	1671.40100
3.88208	0.00000	1685.60600
3.88591	0.00000	1685.60600
3.88973	0.00000	1685.60600
3.89355	0.00000	1693.23900
3.89736	0.00000	1693.23900
3.90119	0.00000	1693.23900
3.90501	0.00000	1693.23900
3.90883	0.00000	1676.13600
3.91265	0.00000	1676.13600
3.91647	0.00000	1676.13600
3.92030	0.00000	1680.87100
3.92412	0.00000	1680.87100
3.92793	0.00000	1680.87100
3.93175	0.00000	1671.40100
3.93558	0.00000	1671.40100
3.93940	0.00000	1671.40100
3.94322	0.00000	1671.40100
3.94705	0.00000	1668.75000
3.95087	0.00000	1668.75000
3.95469	0.00000	1668.75000
3.95851	0.00000	1676.13600
3.96234	0.00000	1676.13600
3.96616	0.00000	1676.13600
3.96999	0.00000	1676.13600
3.97382	0.00000	1668.75000
3.97768	0.00000	1668.75000
3.98151	0.00000	1668.75000
3.98534	0.00000	1676.13600
3.98916	0.00000	1676.13600
3.99301	0.00000	1676.13600
3.99684	0.00000	1676.13600
4.00066	0.00000	1676.13600
4.00448	0.00000	1676.13600
4.00830	0.00000	1676.13600
4.01213	0.00000	1676.13600
4.01596	0.00000	1676.13600
4.01978	0.00000	1676.13600
4.02360	0.00000	1693.23900
4.02742	0.00000	1693.23900
4.03125	0.00000	1693.23900
4.03507	0.00000	1693.23900
4.03889	0.00000	1685.60600
4.04271	0.00000	1685.60600
4.04653	0.00000	1685.60600
4.05036	0.00000	1676.13600
4.05418	0.00000	1676.13600
4.05800	0.00000	1676.13600
4.06182	0.00000	1676.13600
4.06565	0.00000	1680.87100
4.06947	0.00000	1680.87100
4.07330	0.00000	1680.87100
4.07712	0.00000	1671.40100
4.08094	0.00000	1671.40100
4.08476	0.00000	1671.40100
4.08858	0.00000	1676.13600
4.09240	0.00000	1676.13600
4.09621	0.00000	1676.13600
4.10003	0.00000	1676.13600
4.10385	0.00000	1685.60600
4.10767	0.00000	1685.60600
4.11149	0.00000	1685.60600
4.11530	0.00000	1693.23900
4.11912	0.00000	1693.23900
4.12294	0.00000	1693.23900
4.12676	0.00000	1693.23900
4.13058	0.00000	1685.60600
4.13441	0.00000	1685.60600
4.13823	0.00000	1685.60600
4.14206	0.00000	1676.13600
4.14587	0.00000	1676.13600
4.14970	0.00000	1676.13600
4.15352	0.00000	1676.13600
4.15734	0.00000	1668.75000
4.16116	0.00000	1668.75000
4.16498	0.00000	1668.75000
4.16880	0.00000	1676.13600
4.17263	0.00000	1676.13600
4.17645	0.00000	1676.13600
4.18027	0.00000	1676.13600
4.18409	0.00000	1676.13600
4.18791	0.00000	1676.13600
4.19172	0.00000	1676.13600
4.19554	0.00000	1680.87100
4.19936	0.00000	1680.87100
4.20318	0.00000	1680.87100
4.20700	0.00000	1676.13600
4.21083	0.00000	1676.13600
4.21466	0.00000	1676.13600
4.21847	0.00000	1676.13600
4.22230	0.00000	1685.60600
4.22612	0.00000	1685.60600
4.22995	0.00000	1685.60600
4.23377	0.00000	1693.23900
4.23759	0.00000	1693.23900
4.24142	0.00000	1693.23900
4.24524	0.00000	1693.23900
4.24907	0.00000	1685.60600
4.25290	0.00000	1685.60600
4.25671	0.00000	1685.60600
4.26054	0.00000	1676.13600
4.26435	0.00000	1676.13600
4.26817	0.00000	1676.13600
4.27199	0.00000	1680.87100
4.27581	0.00000	1680.87100
4.27963	0.00000	1680.87100
4.28345	0.00000	1680.87100
4.28726	0.00000	1680.87100
4.29108	0.00000	1680.87100
4.29490	0.00000	1680.87100
4.29871	0.00000	1671.40100
4.30253	0.00000	1671.40100
4.30635	0.00000	1671.40100
4.31016	0.00000	1671.40100
4.31399	0.00000	1690.34000
4.31782	0.00000	1690.34000
4.32163	0.00000	1690.34000
4.32545	0.00000	1688.45600
4.32927	0.00000	1688.45600
4.33310	0.00000	1688.45600
4.33693	0.00000	1688.45600
4.34074	0.00000	1685.60600
4.34456	0.00000	1685.60600
4.34838	0.00000	1685.60600
4.35221	0.00000	1680.87100
4.35603	0.00000	1680.87100
4.35985	0.00000	1680.87100
4.36367	0.00000	1693.23900
4.36750	0.00000	1693.23900
4.37132	0.00000	1693.23900
4.37513	0.00000	1693.23900
4.37896	0.00000	1685.60600
4.38279	0.00000	1685.60600
4.38661	0.00000	1685.60600
4.39043	0.00000	1680.87100
4.39426	0.00000	1680.87100
4.39807	0.00000	1680.87100
4.40189	0.00000	1680.87100
4.40571	0.00000	1673.43700
4.40954	0.00000	1673.43700
4.41337	0.00000	1673.43700
4.41725	0.00000	1676.13600
4.42109	0.00000	1676.13600
4.42492	0.00000	1676.13600
4.42875	0.00000	1676.13600
4.43257	0.00000	1680.87100
4.43639	0.00000	1680.87100
4.44021	0.00000	1680.87100
4.44404	0.00000	1688.45600
4.44786	0.00000	1688.45600
4.45168	0.00000	1688.45600
4.45550	0.00000	1680.87100
4.45934	0.00000	1680.87100
4.46316	0.00000	1680.87100
4.46698	0.00000	1680.87100
4.47080	0.00000	1690.34000
4.47463	0.00000	1690.34000
4.47845	0.00000	1690.34000
4.48227	0.00000	1693.23900
4.48611	0.00000	1693.23900
4.48993	0.00000	1693.23900
4.49376	0.00000	1693.23900
4.49758	0.00000	1685.60600
4.50140	0.00000	1685.60600
4.50522	0.00000	1685.60600
4.50904	0.00000	1671.40100
4.51285	0.00000	1671.40100
4.51667	0.00000	1671.40100
4.52049	0.00000	1671.40100
4.52431	0.00000	1680.87100
4.52813	0.00000	1680.87100
4.53196	0.00000	1680.87100
4.53577	0.00000	1680.87100
4.53960	0.00000	1680.87100
4.54343	0.00000	1680.87100
4.54725	0.00000	1676.13600
4.55107	0.00000	1676.13600
4.55489	0.00000	1676.13600
4.55871	0.00000	1676.13600
4.56253	0.00000	1690.34000
4.56635	0.00000	1690.34000
4.57018	0.00000	1690.34000
4.57400	0.00000	1693.23900
4.57782	0.00000	1693.23900
4.58164	0.00000	1693.23900
4.58546	0.00000	1693.23900
4.58928	0.00000	1685.60600
4.59310	0.00000	1685.60600
4.59692	0.00000	1685.60600
4.60074	0.00000	1676.13600
4.60456	0.00000	1676.13600
4.60839	0.00000	1676.13600
4.61221	0.00000	1676.13600
4.61603	0.00000	1680.87100
4.61986	0.00000	1680.87100
4.62367	0.00000	1680.87100
4.62750	0.00000	1676.13600
4.63132	0.00000	1676.13600
4.63514	0.00000	1676.13600
4.63896	0.00000	1676.13600
4.64279	0.00000	1676.13600
4.64661	0.00000	1676.13600
4.65043	0.00000	1676.13600
4.65425	0.00000	1668.75000
4.65808	0.00000	1668.75000
4.66190	0.00000	1668.75000
4.66572	0.00000	1680.87100
4.66953	0.00000	1680.87100
4.67336	0.00000	1680.87100
4.67717	0.00000	1680.87100
4.68099	0.00000	1690.34000
4.68481	0.00000	1690.34000
4.68863	0.00000	1690.34000
4.69244	0.00000	1688.45600
4.69626	0.00000	1688.45600
4.70008	0.00000	1688.45600
4.70391	0.00000	1688.45600
4.70774	0.00000	1685.60600
4.71156	0.00000	1685.60600
4.71538	0.00000	1685.60600
4.71920	0.00000	1680.87100
4.72302	0.00000	1680.87100
4.72684	0.00000	1680.87100
4.73066	0.00000	1676.13600
4.73449	0.00000	1676.13600
4.73831	0.00000	1676.13600
4.74213	0.00000	1676.13600
4.74596	0.00000	1695.07500
4.74979	0.00000	1695.07500
4.75361	0.00000	1695.07500
4.75743	0.00000	1680.87100
4.76125	0.00000	1680.87100
4.76507	0.00000	1680.87100
4.76889	0.00000	1680.87100
4.77272	0.00000	1673.43700
4.77654	0.00000	1673.43700
4.78036	0.00000	1673.43700
4.78419	0.00000	1676.13600
4.78802	0.00000	1676.13600
4.79183	0.00000	1676.13600
4.79566	0.00000	1676.13600
4.79948	0.00000	1676.13600
4.80329	0.00000	1676.13600
4.80711	0.00000	1676.13600
4.81093	0.00000	1693.23900
4.81476	0.00000	1693.23900
4.81858	0.00000	1693.23900
4.82240	0.00000	1693.23900
4.82623	0.00000	1693.23900
4.83005	0.00000	1693.23900
4.83386	0.00000	1693.23900
4.83769	0.00000	1690.34000
4.84152	0.00000	1690.34000
4.84535	0.00000	1690.34000
4.84917	0.00000	1698.02300
4.85301	0.00000	1698.02300
4.85683	0.00000	1698.02300
4.86065	0.00000	1698.02300
4.86447	0.00000	1685.60600
4.86829	0.00000	1685.60600
4.87211	0.00000	1685.60600
4.87593	0.00000	1676.13600
4.87976	0.00000	1676.13600
4.88358	0.00000	1676.13600
4.88740	0.00000	1676.13600
4.89123	0.00000	1676.13600
4.89505	0.00000	1676.13600
4.89886	0.00000	1676.13600
4.90270	0.00000	1680.87100
4.90652	0.00000	1680.87100
4.91034	0.00000	1680.87100
4.91418	0.00000	1676.13600
4.91801	0.00000	1676.13600
4.92182	0.00000	1676.13600
4.92565	0.00000	1676.13600
4.92947	0.00000	1673.43700
4.93329	0.00000	1673.43700
4.93712	0.00000	1673.43700
4.94094	0.00000	1671.40100
4.94476	0.00000	1671.40100
4.94858	0.00000	1671.40100
4.95239	0.00000	1671.40100
4.95622	0.00000	1690.34000
4.96004	0.00000	1690.34000
4.96386	0.00000	1690.34000
4.96769	0.00000	1693.23900
4.97152	0.00000	1693.23900
4.97533	0.00000	1693.23900
4.97916	0.00000	1693.23900
4.98299	0.00000	1693.23900
4.98681	0.00000	1693.23900
4.99064	0.00000	1693.23900
4.99448	0.00000	1680.87100
4.99831	0.00000	1680.87100
5.00265	0.00000	1680.87100
5.00653	0.00000	1676.13600
5.01037	0.00000	1676.13600
5.01419	0.00000	1676.13600
5.01805	0.00000	1676.13600
5.02193	0.00000	1668.75000
5.02581	0.00000	1668.75000
5.02965	0.00000	1668.75000
5.03356	0.00000	1879.59500
5.03749	0.00000	1879.59500
5.04134	0.00000	1879.59500
5.04517	0.00000	1879.59500
5.04900	0.00000	2424.71500
5.05288	0.00000	2424.71500
5.05671	0.00000	2424.71500
5.06054	0.00000	2424.71500
5.06441	0.00000	2828.39000
5.06824	0.00000	2828.39000
5.07208	0.00000	2828.39000
5.07591	0.00000	2828.39000
5.07975	0.00000	3232.88700
5.08357	0.00000	3232.88700
5.08741	0.00000	3232.88700
5.09123	0.00000	3232.88700
5.09506	0.00000	3232.88700
5.09889	0.00000	3604.16600
5.10273	0.00000	3604.16600
5.10656	0.00000	3604.16600
5.11039	0.00000	3604.16600
5.11418	0.00000	3604.16600
5.11800	0.00000	3891.94500
5.12183	0.00000	3891.94500
5.12566	0.00000	3891.94500
5.12950	0.00000	3891.94500
5.13333	0.00000	3891.94500
5.13718	0.00000	4120.56600
5.14102	0.00000	4120.56600
5.14486	0.00000	4120.56600
5.14869	0.00000	4120.56600
5.15252	0.00000	4120.56600
5.15635	0.00000	4276.96000
5.16018	0.00000	4276.96000
5.16401	0.00000	4276.96000
5.16784	0.00000	4276.96000
5.17168	0.00000	4276.96000
5.17551	0.00000	4397.89000
5.17935	0.00000	4397.89000
5.18318	0.00000	4397.89000
5.18701	0.00000	4397.89000
5.19085	0.00000	4397.89000
5.19468	0.00000	4397.89000
5.19852	0.00000	4489.51800
5.20236	0.00000	4489.51800
5.20618	0.00000	4489.51800
5.21002	0.00000	4489.51800
5.21385	0.00000	4489.51800
5.21769	0.00000	4563.07800
5.22152	0.00000	4563.07800
5.22535	0.00000	4563.07800
5.22918	0.00000	4563.07800
5.23302	0.00000	4563.07800
5.23685	0.00000	4563.07800
5.24068	0.00000	4602.27300
5.24451	0.00000	4602.27300
5.24835	0.00000	4602.27300
5.25218	0.00000	4602.27300
5.25600	0.00000	4602.27300
5.25983	0.00000	4602.27300
5.26366	0.00000	4631.02400
5.26748	0.00000	4631.02400
5.27131	0.00000	4631.02400
5.27514	0.00000	4631.02400
5.27898	0.00000	4631.02400
5.28282	0.00000	4704.44200
5.28665	0.00000	4704.44200
5.29048	0.00000	4704.44200
5.29431	0.00000	4704.44200
5.29815	0.00000	4704.44200
5.30198	0.00000	4704.44200
5.30581	0.00000	4698.59400
5.30964	0.00000	4698.59400
5.31347	0.00000	4698.59400
5.31730	0.00000	4698.59400
5.32115	0.00000	4698.59400
5.32498	0.00000	4698.59400
5.32882	0.00000	4742.97300
5.33267	0.00000	4742.97300
5.33650	0.00000	4742.97300
5.34032	0.00000	4742.97300
5.34416	0.00000	4742.97300
5.34800	0.00000	4742.97300
5.35182	0.00000	4748.16100
5.35565	0.00000	4748.16100
5.35948	0.00000	4748.16100
5.36331	0.00000	4748.16100
5.36715	0.00000	4748.16100
5.37099	0.00000	4759.19100
5.37485	0.00000	4759.19100
5.37870	0.00000	4759.19100
5.38254	0.00000	4759.19100
5.38637	0.00000	4759.19100
5.39018	0.00000	4759.19100
5.39402	0.00000	4794.40700
5.39786	0.00000	4794.40700
5.40170	0.00000	4794.40700
5.40554	0.00000	4794.40700
5.40936	0.00000	4794.40700
5.41321	0.00000	4794.40700
5.41704	0.00000	4788.33600
5.42089	0.00000	4788.33600
5.42472	0.00000	4788.33600
5.42855	0.00000	4788.33600
5.43239	0.00000	4788.33600
5.43623	0.00000	4788.33600
5.44006	0.00000	4780.16000
5.44390	0.00000	4780.16000
5.44774	0.00000	4780.16000
5.45157	0.00000	4780.16000
5.45541	0.00000	4780.16000
5.45925	0.00000	4780.16000
5.46308	0.00000	4799.23700
5.46691	0.00000	4799.23700
5.47075	0.00000	4799.23700
5.47459	0.00000	4799.23700
5.47844	0.00000	4799.23700
5.48227	0.00000	4799.23700
5.48609	0.00000	4813.59600
5.48992	0.00000	4813.59600
5.49376	0.00000	4813.59600
5.49759	0.00000	4813.59600
5.50142	0.00000	4813.59600
5.50524	0.00000	4788.33600
5.50909	0.00000	4788.33600
5.51293	0.00000	4788.33600
5.51676	0.00000	4788.33600
5.52060	0.00000	4788.33600
5.52445	0.00000	4788.33600
5.52828	0.00000	4810.13800
5.53211	0.00000	4810.13800
5.53595	0.00000	4810.13800
5.53977	0.00000	4810.13800
5.54360	0.00000	4810.13800
5.54744	0.00000	4810.13800
5.55127	0.00000	4823.76400
5.55510	0.00000	4823.76400
5.55894	0.00000	4823.76400
5.56278	0.00000	4823.76400
5.56661	0.00000	4823.76400
5.57045	0.00000	4823.76400
5.57429	0.00000	4829.21500
5.57813	0.00000	4829.21500
5.58196	0.00000	4829.21500
5.58580	0.00000	4829.21500
5.58964	0.00000	4829.21500
5.59346	0.00000	4829.21500
5.59730	0.00000	4818.31400
5.60114	0.00000	4818.31400
5.60498	0.00000	4818.31400
5.60881	0.00000	4818.31400
5.61264	0.00000	4818.31400
5.61648	0.00000	4818.31400
5.62032	0.00000	4820.26700
5.62415	0.00000	4820.26700
5.62799	0.00000	4820.26700
5.63183	0.00000	4820.26700
5.63566	0.00000	4820.26700
5.63950	0.00000	4820.26700
5.64334	0.00000	4795.88100
5.64717	0.00000	4795.88100
5.65101	0.00000	4795.88100
5.65484	0.00000	4795.88100
5.65868	0.00000	4795.88100
5.66251	0.00000	4795.88100
5.66634	0.00000	4821.03900
5.67018	0.00000	4821.03900
5.67402	0.00000	4821.03900
5.67786	0.00000	4821.03900
5.68169	0.00000	4821.03900
5.68554	0.00000	4801.96200
5.68940	0.00000	4801.96200
5.69324	0.00000	4801.96200
5.69707	0.00000	4801.96200
5.70090	0.00000	4801.96200
5.70474	0.00000	4801.96200
5.70857	0.00000	4822.97700
5.71239	0.00000	4822.97700
5.71623	0.00000	4822.97700
5.72006	0.00000	4822.97700
5.72391	0.00000	4822.97700
5.72775	0.00000	4822.97700
5.73158	0.00000	4828.39600
5.73541	0.00000	4828.39600
5.73925	0.00000	4828.39600
5.74313	0.00000	4828.39600
5.74698	0.00000	4828.39600
5.75084	0.00000	4828.39600
5.75467	0.00000	4806.71900
5.75850	0.00000	4806.71900
5.76234	0.00000	4806.71900
5.76618	0.00000	4806.71900
5.77001	0.00000	4806.71900
5.77383	0.00000	4806.71900
5.77767	0.00000	4814.84800
5.78150	0.00000	4814.84800
5.78536	0.00000	4814.84800
5.78919	0.00000	4814.84800
5.79303	0.00000	4814.84800
5.79686	0.00000	4814.84800
5.80070	0.00000	4812.13800
5.80453	0.00000	4812.13800
5.80836	0.00000	4812.13800
5.81219	0.00000	4812.13800
5.81603	0.00000	4812.13800
5.81986	0.00000	4812.13800
5.82368	0.00000	4814.84800
5.82752	0.00000	4814.84800
5.83135	0.00000	4814.84800
5.83519	0.00000	4814.84800
5.83902	0.00000	4814.84800
5.84285	0.00000	4814.84800
5.84668	0.00000	4823.76400
5.85051	0.00000	4823.76400
5.85434	0.00000	4823.76400
5.85818	0.00000	4823.76400
5.86202	0.00000	4823.76400
5.86585	0.00000	4812.86300
5.86970	0.00000	4812.86300
5.87353	0.00000	4812.86300
5.87736	0.00000	4812.86300
5.88120	0.00000	4812.86300
5.88503	0.00000	4812.86300
5.88889	0.00000	4804.01000
5.89274	0.00000	4804.01000
5.89657	0.00000	4804.01000
5.90040	0.00000	4804.01000
5.90425	0.00000	4804.01000
5.90808	0.00000	4804.01000
5.91192	0.00000	4812.13800
5.91577	0.00000	4812.13800
5.91961	0.00000	4812.13800
5.92344	0.00000	4812.13800
5.92728	0.00000	4812.13800
5.93111	0.00000	4812.13800
5.93494	0.00000	4812.13800
5.93877	0.00000	4812.13800
5.94260	0.00000	4812.13800
5.94646	0.00000	4812.13800
5.95029	0.00000	4812.13800
5.95414	0.00000	4812.13800
5.95798	0.00000	4822.97700
5.96181	0.00000	4822.97700
5.96565	0.00000	4822.97700
5.96948	0.00000	4822.97700
5.97331	0.00000	4822.97700
5.97716	0.00000	4822.97700
5.98102	0.00000	4804.01000
5.98486	0.00000	4804.01000
5.98870	0.00000	4804.01000
5.99254	0.00000	4804.01000
5.99638	0.00000	4804.01000
6.00022	0.00000	4804.01000
6.00405	0.00000	4809.42900
6.00789	0.00000	4809.42900
6.01174	0.00000	4809.42900
6.01558	0.00000	4809.42900
6.01942	0.00000	4809.42900
6.02326	0.00000	4809.42900
6.02709	0.00000	4809.42900
6.03094	0.00000	4809.42900
6.03477	0.00000	4809.42900
6.03861	0.00000	4809.42900
6.04244	0.00000	4809.42900
6.04627	0.00000	4818.31400
6.05010	0.00000	4818.31400
6.05393	0.00000	4818.31400
6.05776	0.00000	4818.31400
6.06159	0.00000	4818.31400
6.06544	0.00000	4818.31400
6.06928	0.00000	4814.84800
6.07313	0.00000	4814.84800
6.07696	0.00000	4814.84800
6.08079	0.00000	4814.84800
6.08463	0.00000	4814.84800
6.08846	0.00000	4814.84800
6.09230	0.00000	4812.13800
6.09615	0.00000	4812.13800
6.09999	0.00000	4812.13800
6.10385	0.00000	4812.13800
6.10770	0.00000	4812.13800
6.11157	0.00000	4812.13800
6.11542	0.00000	4812.13800
6.11925	0.00000	4812.13800
6.12309	0.00000	4812.13800
6.12692	0.00000	4812.13800
6.13076	0.00000	4812.13800
6.13460	0.00000	4812.13800
6.13843	0.00000	4825.68600
6.14226	0.00000	4825.68600
6.14609	0.00000	4825.68600
6.14993	0.00000	4825.68600
6.15376	0.00000	4825.68600
6.15759	0.00000	4825.68600
6.16142	0.00000	4817.55700
6.16525	0.00000	4817.55700
6.16908	0.00000	4817.55700
6.17291	0.00000	4817.55700
6.17675	0.00000	4817.55700
6.18058	0.00000	4817.55700
6.18443	0.00000	4814.84800
6.18826	0.00000	4814.84800
6.19209	0.00000	4814.84800
6.19592	0.00000	4814.84800
6.19976	0.00000	4814.84800
6.20359	0.00000	4814.84800
6.20741	0.00000	4812.13800
6.21125	0.00000	4812.13800
6.21508	0.00000	4812.13800
6.21891	0.00000	4812.13800
6.22275	0.00000	4812.13800
6.22658	0.00000	4815.58800
6.23040	0.00000	4815.58800
6.23423	0.00000	4815.58800
6.23807	0.00000	4815.58800
6.24190	0.00000	4815.58800
6.24574	0.00000	4815.58800
6.24957	0.00000	4823.76400
6.25342	0.00000	4823.76400
6.25725	0.00000	4823.76400
6.26109	0.00000	4823.76400
6.26493	0.00000	4823.76400
6.26876	0.00000	4823.76400
6.27259	0.00000	4817.55700
6.27642	0.00000	4817.55700
6.28027	0.00000	4817.55700
6.28410	0.00000	4817.55700
6.28793	0.00000	4817.55700
6.29178	0.00000	4817.55700
6.29561	0.00000	4808.72800
6.29944	0.00000	4808.72800
6.30328	0.00000	4808.72800
6.30711	0.00000	4808.72800
6.31094	0.00000	4808.72800
6.31478	0.00000	4808.72800
6.31862	0.00000	4809.42900
6.32245	0.00000	4809.42900
6.32629	0.00000	4809.42900
6.33012	0.00000	4809.42900
6.33395	0.00000	4809.42900
6.33779	0.00000	4809.42900
6.34163	0.00000	4822.97700
6.34546	0.00000	4822.97700
6.34930	0.00000	4822.97700
6.35313	0.00000	4822.97700
6.35697	0.00000	4822.97700
6.36080	0.00000	4822.97700
6.36464	0.00000	4817.55700
6.36847	0.00000	4817.55700
6.37230	0.00000	4817.55700
6.37615	0.00000	4817.55700
6.37998	0.00000	4817.55700
6.38381	0.00000	4817.55700
6.38765	0.00000	4814.84800
6.39148	0.00000	4814.84800
6.39532	0.00000	4814.84800
6.39915	0.00000	4814.84800
6.40299	0.00000	4814.84800
6.40682	0.00000	4814.84800
6.41064	0.00000	4837.39000
6.41448	0.00000	4837.39000
6.41831	0.00000	4837.39000
6.42214	0.00000	4837.39000
6.42599	0.00000	4837.39000
6.42983	0.00000	4815.58800
6.43367	0.00000	4815.58800
6.43750	0.00000	4815.58800
6.44134	0.00000	4815.58800
6.44517	0.00000	4815.58800
6.44901	0.00000	4815.58800
6.45285	0.00000	4814.84800
6.45668	0.00000	4814.84800
6.46053	0.00000	4814.84800
6.46437	0.00000	4814.84800
6.46820	0.00000	4814.84800
6.47203	0.00000	4814.84800
6.47588	0.00000	4817.55700
6.47971	0.00000	4817.55700
6.48354	0.00000	4817.55700
6.48738	0.00000	4817.55700
6.49121	0.00000	4817.55700
6.49504	0.00000	4817.55700
6.49888	0.00000	4814.84800
6.50271	0.00000	4814.84800
6.50654	0.00000	4814.84800
6.51038	0.00000	4814.84800
6.51418	0.00000	4814.84800
6.51802	0.00000	4814.84800
6.52185	0.00000	4795.25900
6.52568	0.00000	4795.25900
6.52951	0.00000	4795.25900
6.53334	0.00000	4795.25900
6.53718	0.00000	4795.25900
6.54102	0.00000	4795.25900
6.54485	0.00000	4809.42900
6.54868	0.00000	4809.42900
6.55252	0.00000	4809.42900
6.55635	0.00000	4809.42900
6.56018	0.00000	4809.42900
6.56401	0.00000	4809.42900
6.56784	0.00000	4825.68600
6.57168	0.00000	4825.68600
6.57551	0.00000	4825.68600
6.57934	0.00000	4825.68600
6.58317	0.00000	4825.68600
6.58701	0.00000	4825.68600
6.59084	0.00000	4806.71900
6.59468	0.00000	4806.71900
6.59852	0.00000	4806.71900
6.60235	0.00000	4806.71900
6.60618	0.00000	4806.71900
6.61001	0.00000	4806.71900
6.61383	0.00000	4823.76400
6.61767	0.00000	4823.76400
6.62150	0.00000	4823.76400
6.62533	0.00000	4823.76400
6.62916	0.00000	4823.76400
6.63300	0.00000	4807.41200
6.63684	0.00000	4807.41200
6.64068	0.00000	4807.41200
6.64451	0.00000	4807.41200
6.64834	0.00000	4807.41200
6.65217	0.00000	4807.41200
6.65601	0.00000	4812.13800
6.65985	0.00000	4812.13800
6.66368	0.00000	4812.13800
6.66751	0.00000	4812.13800
6.67135	0.00000	4812.13800
6.67518	0.00000	4812.13800
6.67902	0.00000	4825.68600
6.68286	0.00000	4825.68600
6.68669	0.00000	4825.68600
6.69052	0.00000	4825.68600
6.69435	0.00000	4825.68600
6.69818	0.00000	4825.68600
6.70202	0.00000	4809.42900
6.70585	0.00000	4809.42900
6.70968	0.00000	4809.42900
6.71351	0.00000	4809.42900
6.71734	0.00000	4809.42900
6.72118	0.00000	4809.42900
6.72501	0.00000	4812.13800
6.72885	0.00000	4812.13800
6.73268	0.00000	4812.13800
6.73653	0.00000	4812.13800
6.74036	0.00000	4812.13800
6.74420	0.00000	4812.13800
6.74803	0.00000	4812.13800
6.75187	0.00000	4812.13800
6.75570	0.00000	4812.13800
6.75954	0.00000	4812.13800
6.76338	0.00000	4812.13800
6.76721	0.00000	4812.13800
6.77104	0.00000	4820.26700
6.77488	0.00000	4820.26700
6.77871	0.00000	4820.26700
6.78254	0.00000	4820.26700
6.78637	0.00000	4820.26700
6.79018	0.00000	4820.26700
6.79401	0.00000	4831.94000
6.79785	0.00000	4831.94000
6.80168	0.00000	4831.94000
6.80551	0.00000	4831.94000
6.80934	0.00000	4831.94000
6.81318	0.00000	4807.41200
6.81701	0.00000	4807.41200
6.82084	0.00000	4807.41200
6.82468	0.00000	4807.41200
6.82851	0.00000	4807.41200
6.83234	0.00000	4807.41200
6.83617	0.00000	4812.13800
6.84002	0.00000	4812.13800
6.84385	0.00000	4812.13800
6.84768	0.00000	4812.13800
6.85151	0.00000	4812.13800
6.85535	0.00000	4812.13800
6.85918	0.00000	4809.42900
6.86301	0.00000	4809.42900
6.86684	0.00000	4809.42900
6.87068	0.00000	4809.42900
6.87451	0.00000	4809.42900
6.87836	0.00000	4809.42900
6.88218	0.00000	4831.10500
6.88601	0.00000	4831.10500
6.88984	0.00000	4831.10500
6.89368	0.00000	4831.10500
6.89751	0.00000	4831.10500
6.90135	0.00000	4831.10500
6.90518	0.00000	4812.13800
6.90901	0.00000	4812.13800
6.91286	0.00000	4812.13800
6.91669	0.00000	4812.13800
6.92052	0.00000	4812.13800
6.92436	0.00000	4812.13800
6.92819	0.00000	4834.66500
6.93202	0.00000	4834.66500
6.93586	0.00000	4834.66500
6.93969	0.00000	4834.66500
6.94352	0.00000	4834.66500
6.94736	0.00000	4834.66500
6.95119	0.00000	4825.68600
6.95503	0.00000	4825.68600
6.95886	0.00000	4825.68600
6.96270	0.00000	4825.68600
6.96653	0.00000	4825.68600
6.97036	0.00000	4825.68600
6.97418	0.00000	4804.01000
6.97802	0.00000	4804.01000
6.98185	0.00000	4804.01000
6.98569	0.00000	4804.01000
6.98952	0.00000	4804.01000
6.99336	0.00000	4804.01000
6.99721	0.00000	4822.97700
7.00106	0.00000	4822.97700
7.00490	0.00000	4822.97700
7.00875	0.00000	4822.97700
7.01259	0.00000	4822.97700
7.01644	0.00000	4821.03900
7.02029	0.00000	4821.03900
7.02412	0.00000	4821.03900
7.02795	0.00000	4821.03900
7.03179	0.00000	4821.03900
7.03562	0.00000	4821.03900
7.03945	0.00000	4826.48900
7.04329	0.00000	4826.48900
7.04712	0.00000	4826.48900
7.05096	0.00000	4826.48900
7.05479	0.00000	4826.48900
7.05862	0.00000	4826.48900
7.06246	0.00000	4820.26700
7.06630	0.00000	4820.26700
7.07014	0.00000	4820.26700
7.07398	0.00000	4820.26700
7.07781	0.00000	4820.26700
7.08165	0.00000	4820.26700
7.08548	0.00000	4814.84800
7.08931	0.00000	4814.84800
7.09315	0.00000	4814.84800
7.09700	0.00000	4814.84800
7.10084	0.00000	4814.84800
7.10467	0.00000	4814.84800
7.10851	0.00000	4803.34100
7.11234	0.00000	4803.34100
7.11617	0.00000	4803.34100
7.12002	0.00000	4803.34100
7.12385	0.00000	4803.34100
7.12768	0.00000	4803.34100
7.13152	0.00000	4804.01000
7.13536	0.00000	4804.01000
7.13919	0.00000	4804.01000
7.14302	0.00000	4804.01000
7.14685	0.00000	4804.01000
7.15069	0.00000	4804.01000
7.15452	0.00000	4797.95200
7.15834	0.00000	4797.95200
7.16218	0.00000	4797.95200
7.16601	0.00000	4797.95200
7.16984	0.00000	4797.95200
7.17368	0.00000	4797.95200
7.17751	0.00000	4814.84800
7.18134	0.00000	4814.84800
7.18518	0.00000	4814.84800
7.18901	0.00000	4814.84800
7.19284	0.00000	4814.84800
7.19668	0.00000	4801.96200
7.20052	0.00000	4801.96200
7.20437	0.00000	4801.96200
7.20820	0.00000	4801.96200
7.21204	0.00000	4801.96200
7.21587	0.00000	4801.96200
7.21971	0.00000	4823.76400
7.22357	0.00000	4823.76400
7.22741	0.00000	4823.76400
7.23125	0.00000	4823.76400
7.23508	0.00000	4823.76400
7.23891	0.00000	4823.76400
7.24275	0.00000	4809.42900
7.24658	0.00000	4809.42900
7.25041	0.00000	4809.42900
7.25425	0.00000	4809.42900
7.25808	0.00000	4809.42900
7.26192	0.00000	4809.42900
7.26575	0.00000	4814.84800
7.26957	0.00000	4814.84800
7.27341	0.00000	4814.84800
7.27724	0.00000	4814.84800
7.28108	0.00000	4814.84800
7.28491	0.00000	4814.84800
7.28876	0.00000	4817.55700
7.29259	0.00000	4817.55700
7.29643	0.00000	4817.55700
7.30027	0.00000	4817.55700
7.30412	0.00000	4817.55700
7.30795	0.00000	4817.55700
7.31179	0.00000	4812.13800
7.31563	0.00000	4812.13800
7.31947	0.00000	4812.13800
7.32332	0.00000	4812.13800
7.32715	0.00000	4812.13800
7.33100	0.00000	4812.13800
7.33483	0.00000	4828.39600
7.33868	0.00000	4828.39600
7.34252	0.00000	4828.39600
7.34635	0.00000	4828.39600
7.35018	0.00000	4828.39600
7.35402	0.00000	4828.39600
7.35785	0.00000	4806.71900
7.36170	0.00000	4806.71900
7.36553	0.00000	4806.71900
7.36937	0.00000	4806.71900
7.37321	0.00000	4806.71900
7.37705	0.00000	4810.13800
7.38087	0.00000	4810.13800
7.38471	0.00000	4810.13800
7.38856	0.00000	4810.13800
7.39239	0.00000	4810.13800
7.39623	0.00000	4810.13800
7.40006	0.00000	4815.58800
7.40392	0.00000	4815.58800
7.40776	0.00000	4815.58800
7.41159	0.00000	4815.58800
7.41542	0.00000	4815.58800
7.41925	0.00000	4815.58800
7.42309	0.00000	4809.42900
7.42692	0.00000	4809.42900
7.43075	0.00000	4809.42900
7.43459	0.00000	4809.42900
7.43842	0.00000	4809.42900
7.44226	0.00000	4809.42900
7.44609	0.00000	4817.55700
7.44992	0.00000	4817.55700
7.45377	0.00000	4817.55700
7.45761	0.00000	4817.55700
7.46144	0.00000	4817.55700
7.46527	0.00000	4817.55700
7.46910	0.00000	4837.39000
7.47294	0.00000	4837.39000
7.47677	0.00000	4837.39000
7.48060	0.00000	4837.39000
7.48444	0.00000	4837.39000
7.48827	0.00000	4837.39000
7.49209	0.00000	4814.84800
7.49593	0.00000	4814.84800
7.49976	0.00000	4814.84800
7.50361	0.00000	4814.84800
7.50744	0.00000	4814.84800
7.51127	0.00000	4814.84800
7.51512	0.00000	4809.42900
7.51895	0.00000	4809.42900
7.52279	0.00000	4809.42900
7.52662	0.00000	4809.42900
7.53045	0.00000	4809.42900
7.53429	0.00000	4809.42900
7.53812	0.00000	4812.13800
7.54195	0.00000	4812.13800
7.54578	0.00000	4812.13800
7.54962	0.00000	4812.13800
7.55345	0.00000	4812.13800
7.55728	0.00000	4812.13800
7.56111	0.00000	4823.76400
7.56495	0.00000	4823.76400
7.56878	0.00000	4823.76400
7.57261	0.00000	4823.76400
7.57646	0.00000	4823.76400
7.58029	0.00000	4810.13800
7.58414	0.00000	4810.13800
7.58797	0.00000	4810.13800
7.59180	0.00000	4810.13800
7.59564	0.00000	4810.13800
7.59947	0.00000	4810.13800
7.60330	0.00000	4798.59100
7.60714	0.00000	4798.59100
7.61097	0.00000	4798.59100
7.61481	0.00000	4798.59100
7.61865	0.00000	4798.59100
7.62248	0.00000	4798.59100
7.62631	0.00000	4825.68600
7.63014	0.00000	4825.68600
7.63399	0.00000	4825.68600
7.63782	0.00000	4825.68600
7.64165	0.00000	4825.68600
7.64548	0.00000	4825.68600
7.64932	0.00000	4822.97700
7.65315	0.00000	4822.97700
7.65697	0.00000	4822.97700
7.66080	0.00000	4822.97700
7.66464	0.00000	4822.97700
7.66847	0.00000	4822.97700
7.67230	0.00000	4814.84800
7.67615	0.00000	4814.84800
7.67999	0.00000	4814.84800
7.68383	0.00000	4814.84800
7.68767	0.00000	4814.84800
7.69151	0.00000	4814.84800
7.69535	0.00000	4822.97700
7.69918	0.00000	4822.97700
7.70301	0.00000	4822.97700
7.70684	0.00000	4822.97700
7.71068	0.00000	4822.97700
7.71451	0.00000	4822.97700
7.71834	0.00000	4822.97700
7.72218	0.00000	4822.97700
7.72602	0.00000	4822.97700
7.72985	0.00000	4822.97700
7.73369	0.00000	4822.97700
7.73753	0.00000	4822.97700
7.74137	0.00000	4804.01000
7.74521	0.00000	4804.01000
7.74904	0.00000	4804.01000
7.75287	0.00000	4804.01000
7.75671	0.00000	4804.01000
7.76054	0.00000	4826.48900
7.76437	0.00000	4826.48900
7.76820	0.00000	4826.48900
7.77204	0.00000	4826.48900
7.77587	0.00000	4826.48900
7.77970	0.00000	4826.48900
7.78354	0.00000	4823.76400
7.78738	0.00000	4823.76400
7.79121	0.00000	4823.76400
7.79505	0.00000	4823.76400
7.79889	0.00000	4823.76400
7.80272	0.00000	4823.76400
7.80656	0.00000	4806.71900
7.81039	0.00000	4806.71900
7.81418	0.00000	4806.71900
7.81800	0.00000	4806.71900
7.82184	0.00000	4806.71900
7.82567	0.00000	4806.71900
7.82950	0.00000	4820.26700
7.83333	0.00000	4820.26700
7.83718	0.00000	4820.26700
7.84102	0.00000	4820.26700
7.84487	0.00000	4820.26700
7.84874	0.00000	4820.26700
7.85258	0.00000	4820.26700
7.85643	0.00000	4820.26700
7.86026	0.00000	4820.26700
7.86410	0.00000	4820.26700
7.86793	0.00000	4820.26700
7.87177	0.00000	4820.26700
7.87559	0.00000	4814.84800
7.87943	0.00000	4814.84800
7.88326	0.00000	4814.84800
7.88710	0.00000	4814.84800
7.89095	0.00000	4814.84800
7.89478	0.00000	4814.84800
7.89862	0.00000	4825.68600
7.90246	0.00000	4825.68600
7.90629	0.00000	4825.68600
7.91013	0.00000	4825.68600
7.91398	0.00000	4825.68600
7.91781	0.00000	4825.68600
7.92164	0.00000	4812.13800
7.92547	0.00000	4812.13800
7.92930	0.00000	4812.13800
7.93314	0.00000	4812.13800
7.93697	0.00000	4812.13800
7.94081	0.00000	4812.13800
7.94463	0.00000	4822.97700
7.94847	0.00000	4822.97700
7.95231	0.00000	4822.97700
7.95615	0.00000	4822.97700
7.95998	0.00000	4822.97700
7.96381	0.00000	4815.58800
7.96764	0.00000	4815.58800
7.97147	0.00000	4815.58800
7.97534	0.00000	4815.58800
7.97920	0.00000	4815.58800
7.98304	0.00000	4815.58800
7.98688	0.00000	4798.59100
7.99071	0.00000	4798.59100
7.99455	0.00000	4798.59100
7.99840	0.00000	4798.59100
8.00224	0.00000	4798.59100
8.00609	0.00000	4798.59100
8.00994	0.00000	4822.97700
8.01379	0.00000	4822.97700
8.01764	0.00000	4822.97700
8.02148	0.00000	4822.97700
8.02532	0.00000	4822.97700
8.02917	0.00000	4822.97700
8.03301	0.00000	4808.72800
8.03685	0.00000	4808.72800
8.04069	0.00000	4808.72800
8.04452	0.00000	4808.72800
8.04836	0.00000	4808.72800
8.05219	0.00000	4808.72800
8.05604	0.00000	4814.84800
8.05987	0.00000	4814.84800
8.06372	0.00000	4814.84800
8.06755	0.00000	4814.84800
8.07140	0.00000	4814.84800
8.07523	0.00000	4814.84800
8.07908	0.00000	4831.10500
8.08292	0.00000	4831.10500
8.08676	0.00000	4831.10500
8.09060	0.00000	4831.10500
8.09444	0.00000	4831.10500
8.09828	0.00000	4831.10500
8.10212	0.00000	4797.95200
8.10597	0.00000	4797.95200
8.10981	0.00000	4797.95200
8.11365	0.00000	4797.95200
8.11748	0.00000	4797.95200
8.12131	0.00000	4797.95200
8.12514	0.00000	4804.01000
8.12898	0.00000	4804.01000
8.13282	0.00000	4804.01000
8.13666	0.00000	4804.01000
8.14050	0.00000	4804.01000
8.14434	0.00000	4823.76400
8.14817	0.00000	4823.76400
8.15201	0.00000	4823.76400
8.15584	0.00000	4823.76400
8.15968	0.00000	4823.76400
8.16351	0.00000	4823.76400
8.16735	0.00000	4831.94000
8.17119	0.00000	4831.94000
8.17502	0.00000	4831.94000
8.17885	0.00000	4831.94000
8.18268	0.00000	4831.94000
8.18651	0.00000	4831.94000
8.19034	0.00000	4822.97700
8.19418	0.00000	4822.97700
8.19802	0.00000	4822.97700
8.20185	0.00000	4822.97700
8.20568	0.00000	4822.97700
8.20952	0.00000	4822.97700
8.21336	0.00000	4803.34100
8.21720	0.00000	4803.34100
8.22103	0.00000	4803.34100
8.22487	0.00000	4803.34100
8.22870	0.00000	4803.34100
8.23253	0.00000	4803.34100
8.23635	0.00000	4817.55700
8.24019	0.00000	4817.55700
8.24402	0.00000	4817.55700
8.24786	0.00000	4817.55700
8.25169	0.00000	4817.55700
8.25552	0.00000	4817.55700
8.25936	0.00000	4800.64700
8.26320	0.00000	4800.64700
8.26704	0.00000	4800.64700
8.27088	0.00000	4800.64700
8.27472	0.00000	4800.64700
8.27855	0.00000	4800.64700
8.28238	0.00000	4808.72800
8.28618	0.00000	4808.72800
8.29001	0.00000	4808.72800
8.29384	0.00000	4808.72800
8.29767	0.00000	4808.72800
8.30150	0.00000	4808.72800
8.30534	0.00000	4833.81500
8.30918	0.00000	4833.81500
8.31301	0.00000	4833.81500
8.31687	0.00000	4833.81500
8.32071	0.00000	4833.81500
8.32455	0.00000	4833.81500
8.32837	0.00000	4822.97700
8.33222	0.00000	4822.97700
8.33606	0.00000	4822.97700
8.33989	0.00000	4822.97700
8.34373	0.00000	4822.97700
8.34755	0.00000	4815.58800
8.35140	0.00000	4815.58800
8.35523	0.00000	4815.58800
8.35907	0.00000	4815.58800
8.36290	0.00000	4815.58800
8.36673	0.00000	4815.58800
8.37057	0.00000	4842.84100
8.37442	0.00000	4842.84100
8.37825	0.00000	4842.84100
8.38209	0.00000	4842.84100
8.38593	0.00000	4842.84100
8.38977	0.00000	4842.84100
8.39361	0.00000	4833.81500
8.39745	0.00000	4833.81500
8.40128	0.00000	4833.81500
8.40511	0.00000	4833.81500
8.40894	0.00000	4833.81500
8.41279	0.00000	4833.81500
8.41666	0.00000	4820.26700
8.42051	0.00000	4820.26700
8.42435	0.00000	4820.26700
8.42818	0.00000	4820.26700
8.43203	0.00000	4820.26700
8.43587	0.00000	4820.26700
8.43971	0.00000	4828.39600
8.44355	0.00000	4828.39600
8.44740	0.00000	4828.39600
8.45124	0.00000	4828.39600
8.45507	0.00000	4828.39600
8.45891	0.00000	4828.39600
8.46275	0.00000	4825.68600
8.46659	0.00000	4825.68600
8.47043	0.00000	4825.68600
8.47427	0.00000	4825.68600
8.47811	0.00000	4825.68600
8.48196	0.00000	4825.68600
8.48580	0.00000	4814.84800
8.48963	0.00000	4814.84800
8.49347	0.00000	4814.84800
8.49730	0.00000	4814.84800
8.50113	0.00000	4814.84800
8.50497	0.00000	4814.84800
8.50881	0.00000	4817.55700
8.51267	0.00000	4817.55700
8.51652	0.00000	4817.55700
8.52036	0.00000	4817.55700
8.52420	0.00000	4817.55700
8.52803	0.00000	4821.03900
8.53185	0.00000	4821.03900
8.53569	0.00000	4821.03900
8.53952	0.00000	4821.03900
8.54335	0.00000	4821.03900
8.54718	0.00000	4821.03900
8.55102	0.00000	4821.03900
8.55485	0.00000	4821.03900
8.55869	0.00000	4821.03900
8.56252	0.00000	4821.03900
8.56636	0.00000	4821.03900
8.57018	0.00000	4821.03900
8.57402	0.00000	4814.84800
8.57785	0.00000	4814.84800
8.58168	0.00000	4814.84800
8.58551	0.00000	4814.84800
8.58935	0.00000	4814.84800
8.59318	0.00000	4814.84800
8.59701	0.00000	4812.13800
8.60083	0.00000	4812.13800
8.60466	0.00000	4812.13800
8.60850	0.00000	4812.13800
8.61233	0.00000	4812.13800
8.61616	0.00000	4812.13800
8.61999	0.00000	4806.71900
8.62383	0.00000	4806.71900
8.62766	0.00000	4806.71900
8.63149	0.00000	4806.71900
8.63532	0.00000	4806.71900
8.63916	0.00000	4806.71900
8.64299	0.00000	4806.71900
8.64682	0.00000	4806.71900
8.65065	0.00000	4806.71900
8.65449	0.00000	4806.71900
8.65832	0.00000	4806.71900
8.66216	0.00000	4806.71900
8.66600	0.00000	4820.26700
8.66983	0.00000	4820.26700
8.67367	0.00000	4820.26700
8.67750	0.00000	4820.26700
8.68133	0.00000	4820.26700
8.68516	0.00000	4820.26700
8.68900	0.00000	4804.01000
8.69283	0.00000	4804.01000
8.69666	0.00000	4804.01000
8.70050	0.00000	4804.01000
8.70433	0.00000	4804.01000
8.70817	0.00000	4804.01000
8.71201	0.00000	4817.55700
8.71584	0.00000	4817.55700
8.71969	0.00000	4817.55700
8.72352	0.00000	4817.55700
8.72735	0.00000	4817.55700
8.73120	0.00000	4818.31400
8.73503	0.00000	4818.31400
8.73886	0.00000	4818.31400
8.74270	0.00000	4818.31400
8.74654	0.00000	4818.31400
8.75037	0.00000	4818.31400
8.75418	0.00000	4831.94000
8.75801	0.00000	4831.94000
8.76184	0.00000	4831.94000
8.76568	0.00000	4831.94000
8.76951	0.00000	4831.94000
8.77334	0.00000	4831.94000
8.77718	0.00000	4812.13800
8.78102	0.00000	4812.13800
8.78486	0.00000	4812.13800
8.78870	0.00000	4812.13800
8.79253	0.00000	4812.13800
8.79636	0.00000	4812.13800
8.80019	0.00000	4817.55700
8.80402	0.00000	4817.55700
8.80785	0.00000	4817.55700
8.81169	0.00000	4817.55700
8.81552	0.00000	4817.55700
8.81936	0.00000	4817.55700
8.82319	0.00000	4806.03400
8.82703	0.00000	4806.03400
8.83086	0.00000	4806.03400
8.83469	0.00000	4806.03400
8.83853	0.00000	4806.03400
8.84236	0.00000	4806.03400
8.84618	0.00000	4806.71900
8.85001	0.00000	4806.71900
8.85384	0.00000	4806.71900
8.85769	0.00000	4806.71900
8.86152	0.00000	4806.71900
8.86535	0.00000	4806.71900
8.86918	0.00000	4820.26700
8.87302	0.00000	4820.26700
8.87685	0.00000	4820.26700
8.88070	0.00000	4820.26700
8.88453	0.00000	4820.26700
8.88836	0.00000	4820.26700
8.89219	0.00000	4820.26700
8.89604	0.00000	4820.26700
8.89987	0.00000	4820.26700
8.90370	0.00000	4820.26700
8.90753	0.00000	4820.26700
8.91137	0.00000	4820.26700
8.91521	0.00000	4798.59100
8.91904	0.00000	4798.59100
8.92287	0.00000	4798.59100
8.92671	0.00000	4798.59100
8.93054	0.00000	4798.59100
8.93437	0.00000	4818.31400
8.93818	0.00000	4818.31400
8.94201	0.00000	4818.31400
8.94586	0.00000	4818.31400
8.94969	0.00000	4818.31400
8.95353	0.00000	4818.31400
8.95736	0.00000	4834.66500
8.96119	0.00000	4834.66500
8.96502	0.00000	4834.66500
8.96885	0.00000	4834.66500
8.97269	0.00000	4834.66500
8.97654	0.00000	4834.66500
8.98045	0.00000	4817.55700
8.98431	0.00000	4817.55700
8.98814	0.00000	4817.55700
8.99199	0.00000	4817.55700
8.99583	0.00000	4817.55700
8.99970	0.00000	4817.55700
9.00354	0.00000	4828.39600
9.00738	0.00000	4828.39600
9.01123	0.00000	4828.39600
9.01508	0.00000	4828.39600
9.01892	0.00000	4828.39600
9.02276	0.00000	4828.39600
9.02660	0.00000	4814.84800
9.03044	0.00000	4814.84800
9.03427	0.00000	4814.84800
9.03812	0.00000	4814.84800
9.04195	0.00000	4814.84800
9.04578	0.00000	4814.84800
9.04962	0.00000	4812.13800
9.05346	0.00000	4812.13800
9.05729	0.00000	4812.13800
9.06113	0.00000	4812.13800
9.06496	0.00000	4812.13800
9.06881	0.00000	4812.13800
9.07266	0.00000	4789.87000
9.07649	0.00000	4789.87000
9.08033	0.00000	4789.87000
9.08417	0.00000	4789.87000
9.08800	0.00000	4789.87000
9.09183	0.00000	4789.87000
9.09566	0.00000	4812.13800
9.09949	0.00000	4812.13800
9.10332	0.00000	4812.13800
9.10715	0.00000	4812.13800
9.11097	0.00000	4812.13800
9.11481	0.00000	4810.13800
9.11865	0.00000	4810.13800
9.12249	0.00000	4810.13800
9.12632	0.00000	4810.13800
9.13018	0.00000	4810.13800
9.13403	0.00000	4810.13800
9.13786	0.00000	4823.76400
9.14171	0.00000	4823.76400
9.14554	0.00000	4823.76400
9.14937	0.00000	4823.76400
9.15321	0.00000	4823.76400
9.15704	0.00000	4823.76400
9.16087	0.00000	4789.87000
9.16471	0.00000	4789.87000
9.16854	0.00000	4789.87000
9.17238	0.00000	4789.87000
9.17622	0.00000	4789.87000
9.18006	0.00000	4789.87000
9.18390	0.00000	4820.26700
9.18773	0.00000	4820.26700
9.19156	0.00000	4820.26700
9.19540	0.00000	4820.26700
9.19923	0.00000	4820.26700
9.20306	0.00000	4820.26700
9.20690	0.00000	4804.01000
9.21073	0.00000	4804.01000
9.21457	0.00000	4804.01000
9.21840	0.00000	4804.01000
9.22224	0.00000	4804.01000
9.22607	0.00000	4804.01000
9.22990	0.00000	4817.55700
9.23374	0.00000	4817.55700
9.23757	0.00000	4817.55700
9.24141	0.00000	4817.55700
9.24524	0.00000	4817.55700
9.24908	0.00000	4817.55700
9.25291	0.00000	4801.30100
9.25674	0.00000	4801.30100
9.26058	0.00000	4801.30100
9.26441	0.00000	4801.30100
9.26824	0.00000	4801.30100
9.27207	0.00000	4801.30100
9.27590	0.00000	4812.13800
9.27973	0.00000	4812.13800
9.28357	0.00000	4812.13800
9.28740	0.00000	4812.13800
9.29123	0.00000	4812.13800
9.29507	0.00000	4832.78500
9.29889	0.00000	4832.78500
9.30273	0.00000	4832.78500
9.30656	0.00000	4832.78500
9.31039	0.00000	4832.78500
9.31423	0.00000	4832.78500
9.31806	0.00000	4821.03900
9.32191	0.00000	4821.03900
9.32575	0.00000	4821.03900
9.32958	0.00000	4821.03900
9.33341	0.00000	4821.03900
9.33725	0.00000	4821.03900
9.34108	0.00000	4812.13800
9.34492	0.00000	4812.13800
9.34875	0.00000	4812.13800
9.35260	0.00000	4812.13800
9.35643	0.00000	4812.13800
9.36027	0.00000	4812.13800
9.36410	0.00000	4801.30100
9.36793	0.00000	4801.30100
9.37177	0.00000	4801.30100
9.37560	0.00000	4801.30100
9.37944	0.00000	4801.30100
9.38327	0.00000	4801.30100
9.38712	0.00000	4817.55700
9.39095	0.00000	4817.55700
9.39479	0.00000	4817.55700
9.39862	0.00000	4817.55700
9.40246	0.00000	4817.55700
9.40629	0.00000	4817.55700
9.41013	0.00000	4829.21500
9.41397	0.00000	4829.21500
9.41780	0.00000	4829.21500
9.42164	0.00000	4829.21500
9.42547	0.00000	4829.21500
9.42932	0.00000	4829.21500
9.43315	0.00000	4806.71900
9.43700	0.00000	4806.71900
9.44084	0.00000	4806.71900
9.44468	0.00000	4806.71900
9.44852	0.00000	4806.71900
9.45236	0.00000	4806.71900
9.45620	0.00000	4812.13800
9.46004	0.00000	4812.13800
9.46387	0.00000	4812.13800
9.46771	0.00000	4812.13800
9.47154	0.00000	4812.13800
9.47539	0.00000	4804.68700
9.47921	0.00000	4804.68700
9.48304	0.00000	4804.68700
9.48688	0.00000	4804.68700
9.49071	0.00000	4804.68700
9.49454	0.00000	4804.68700
9.49838	0.00000	4831.94000
9.50218	0.00000	4831.94000
9.50602	0.00000	4831.94000
9.50986	0.00000	4831.94000
9.51369	0.00000	4831.94000
9.51752	0.00000	4831.94000
9.52138	0.00000	4820.26700
9.52524	0.00000	4820.26700
9.52909	0.00000	4820.26700
9.53295	0.00000	4820.26700
9.53679	0.00000	4820.26700
9.54063	0.00000	4820.26700
9.54446	0.00000	4806.71900
9.54829	0.00000	4806.71900
9.55212	0.00000	4806.71900
9.55596	0.00000	4806.71900
9.55980	0.00000	4806.71900
9.56363	0.00000	4806.71900
9.56748	0.00000	4806.71900
9.57131	0.00000	4806.71900
9.57515	0.00000	4806.71900
9.57898	0.00000	4806.71900
9.58281	0.00000	4806.71900
9.58665	0.00000	4806.71900
9.59048	0.00000	4837.39000
9.59431	0.00000	4837.39000
9.59815	0.00000	4837.39000
9.60199	0.00000	4837.39000
9.60582	0.00000	4837.39000
9.60966	0.00000	4837.39000
9.61349	0.00000	4820.26700
9.61733	0.00000	4820.26700
9.62116	0.00000	4820.26700
9.62501	0.00000	4820.26700
9.62884	0.00000	4820.26700
9.63267	0.00000	4820.26700
9.63651	0.00000	4804.01000
9.64034	0.00000	4804.01000
9.64417	0.00000	4804.01000
9.64801	0.00000	4804.01000
9.65184	0.00000	4804.01000
9.65567	0.00000	4804.01000
9.65949	0.00000	4809.42900
9.66333	0.00000	4809.42900
9.66716	0.00000	4809.42900
9.67100	0.00000	4809.42900
9.67483	0.00000	4809.42900
9.67868	0.00000	4815.58800
9.68254	0.00000	4815.58800
9.68637	0.00000	4815.58800
9.69018	0.00000	4815.58800
9.69403	0.00000	4815.58800
9.69786	0.00000	4815.58800
9.70171	0.00000	4801.30100
9.70554	0.00000	4801.30100
9.70938	0.00000	4801.30100
9.71321	0.00000	4801.30100
9.71704	0.00000	4801.30100
9.72088	0.00000	4801.30100
9.72472	0.00000	4828.39600
9.72856	0.00000	4828.39600
9.73240	0.00000	4828.39600
9.73623	0.00000	4828.39600
9.74007	0.00000	4828.39600
9.74390	0.00000	4828.39600
9.74774	0.00000	4812.13800
9.75157	0.00000	4812.13800
9.75541	0.00000	4812.13800
9.75924	0.00000	4812.13800
9.76308	0.00000	4812.13800
9.76691	0.00000	4812.13800
9.77074	0.00000	4817.55700
9.77457	0.00000	4817.55700
9.77841	0.00000	4817.55700
9.78224	0.00000	4817.55700
9.78608	0.00000	4817.55700
9.78991	0.00000	4817.55700
9.79375	0.00000	4834.66500
9.79759	0.00000	4834.66500
9.80142	0.00000	4834.66500
9.80525	0.00000	4834.66500
9.80909	0.00000	4834.66500
9.81294	0.00000	4834.66500
9.81677	0.00000	4820.26700
9.82062	0.00000	4820.26700
9.82446	0.00000	4820.26700
9.82830	0.00000	4820.26700
9.83214	0.00000	4820.26700
9.83598	0.00000	4820.26700
9.83981	0.00000	4804.01000
9.84364	0.00000	4804.01000
9.84748	0.00000	4804.01000
9.85132	0.00000	4804.01000
9.85516	0.00000	4804.01000
9.85900	0.00000	4807.41200
9.86284	0.00000	4807.41200
9.86668	0.00000	4807.41200
9.87052	0.00000	4807.41200
9.87436	0.00000	4807.41200
9.87818	0.00000	4807.41200
9.88200	0.00000	4806.71900
9.88585	0.00000	4806.71900
9.88969	0.00000	4806.71900
9.89353	0.00000	4806.71900
9.89736	0.00000	4806.71900
9.90120	0.00000	4806.71900
9.90504	0.00000	4801.30100
9.90887	0.00000	4801.30100
9.91271	0.00000	4801.30100
9.91656	0.00000	4801.30100
9.92038	0.00000	4801.30100
9.92421	0.00000	4801.30100
9.92804	0.00000	4806.71900
9.93187	0.00000	4806.71900
9.93572	0.00000	4806.71900
9.93956	0.00000	4806.71900
9.94341	0.00000	4806.71900
9.94725	0.00000	4806.71900
9.95108	0.00000	4814.84800
9.95492	0.00000	4814.84800
9.95877	0.00000	4814.84800
9.96261	0.00000	4814.84800
9.96644	0.00000	4814.84800
9.97028	0.00000	4814.84800
9.97412	0.00000	4809.42900
9.97795	0.00000	4809.42900
9.98178	0.00000	4809.42900
9.98562	0.00000	4809.42900
9.98946	0.00000	4809.42900
9.99330	0.00000	4809.42900
9.99714	0.00000	4809.42900
