Time (s)   Thrust (N)   RPM
0.00030	0.00000	4224.95800
0.00420	0.00000	4224.95800
0.00809	0.00000	4218.75000
0.01195	0.00000	4218.75000
0.01579	0.00000	4218.75000
0.01964	0.00000	4218.75000
0.02361	0.00000	4218.75000
0.02745	0.00000	4209.37500
0.03129	0.00000	4209.37500
0.03512	0.00000	4209.37500
0.03896	0.00000	4209.37500
0.04278	0.00000	4209.37500
0.04660	0.00000	4026.11200
0.05042	0.00000	4026.11200
0.05426	0.00000	4026.11200
0.05808	0.00000	4026.11200
0.06189	0.00000	4026.11200
0.06571	0.00000	3869.68100
0.06953	0.00000	3869.68100
0.07336	0.00000	3869.68100
0.07718	0.00000	3869.68100
0.08102	0.00000	3715.53300
0.08486	0.00000	3715.53300
0.08868	0.00000	3715.53300
0.09250	0.00000	3715.53300
0.09633	0.00000	3715.53300
0.10016	0.00000	3584.35100
0.10397	0.00000	3584.35100
0.10779	0.00000	3584.35100
0.11161	0.00000	3584.35100
0.11543	0.00000	3443.50900
0.11929	0.00000	3443.50900
0.12311	0.00000	3443.50900
0.12694	0.00000	3443.50900
0.13077	0.00000	3443.50900
0.13459	0.00000	3350.83000
0.13841	0.00000	3350.83000
0.14224	0.00000	3350.83000
0.14607	0.00000	3350.83000
0.14990	0.00000	3243.75000
0.15372	0.00000	3243.75000
0.15754	0.00000	3243.75000
0.16138	0.00000	3243.75000
0.16521	0.00000	3122.47900
0.16904	0.00000	3122.47900
0.17286	0.00000	3122.47900
0.17669	0.00000	3122.47900
0.18052	0.00000	3050.71700
0.18436	0.00000	3050.71700
0.18822	0.00000	3050.71700
0.19206	0.00000	3050.71700
0.19589	0.00000	3050.71700
0.19972	0.00000	2980.46800
0.20356	0.00000	2980.46800
0.20739	0.00000	2980.46800
0.21122	0.00000	2980.46800
0.21505	0.00000	2899.15900
0.21888	0.00000	2899.15900
0.22270	0.00000	2899.15900
0.22652	0.00000	2899.15900
0.23035	0.00000	2820.44400
0.23418	0.00000	2820.44400
0.23802	0.00000	2820.44400
0.24184	0.00000	2820.44400
0.24566	0.00000	2776.13100
0.24949	0.00000	2776.13100
0.25332	0.00000	2776.13100
0.25715	0.00000	2776.13100
0.26097	0.00000	2722.82600
0.26480	0.00000	2722.82600
0.26863	0.00000	2722.82600
0.27247	0.00000	2722.82600
0.27629	0.00000	2641.30400
0.28012	0.00000	2641.30400
0.28395	0.00000	2641.30400
0.28777	0.00000	2641.30400
0.29159	0.00000	2600.94000
0.29542	0.00000	2600.94000
0.29924	0.00000	2600.94000
0.30307	0.00000	2557.19800
0.30689	0.00000	2557.19800
0.31072	0.00000	2557.19800
0.31454	0.00000	2557.19800
0.31838	0.00000	2529.56000
0.32219	0.00000	2529.56000
0.32601	0.00000	2529.56000
0.32984	0.00000	2529.56000
0.33366	0.00000	2474.66200
0.33749	0.00000	2474.66200
0.34132	0.00000	2474.66200
0.34514	0.00000	2474.66200
0.34896	0.00000	2419.76300
0.35279	0.00000	2419.76300
0.35662	0.00000	2419.76300
0.36044	0.00000	2419.76300
0.36426	0.00000	2390.62500
0.36808	0.00000	2390.62500
0.37190	0.00000	2390.62500
0.37572	0.00000	2352.35000
0.37955	0.00000	2352.35000
0.38338	0.00000	2352.35000
0.38721	0.00000	2352.35000
0.39103	0.00000	2309.34600
0.39486	0.00000	2309.34600
0.39868	0.00000	2309.34600
0.40250	0.00000	2309.34600
0.40632	0.00000	2300.34700
0.41014	0.00000	2300.34700
0.41398	0.00000	2300.34700
0.41780	0.00000	2300.34700
0.42161	0.00000	2278.03700
0.42544	0.00000	2278.03700
0.42926	0.00000	2278.03700
0.43308	0.00000	2246.46200
0.43691	0.00000	2246.46200
0.44074	0.00000	2246.46200
0.44456	0.00000	2246.46200
0.44839	0.00000	2228.77300
0.45221	0.00000	2228.77300
0.45604	0.00000	2228.77300
0.45985	0.00000	2228.77300
0.46368	0.00000	2197.81800
0.46751	0.00000	2197.81800
0.47133	0.00000	2197.81800
0.47517	0.00000	2169.64200
0.47899	0.00000	2169.64200
0.48282	0.00000	2169.64200
0.48664	0.00000	2169.64200
0.49046	0.00000	2135.90800
0.49429	0.00000	2135.90800
0.49811	0.00000	2135.90800
0.50194	0.00000	2135.90800
0.50576	0.00000	2125.00000
0.50959	0.00000	2125.00000
0.51341	0.00000	2125.00000
0.51724	0.00000	2080.35700
0.52106	0.00000	2080.35700
0.52489	0.00000	2080.35700
0.52872	0.00000	2080.35700
0.53259	0.00000	2071.42800
0.53642	0.00000	2071.42800
0.54025	0.00000	2071.42800
0.54407	0.00000	2055.28800
0.54789	0.00000	2055.28800
0.55171	0.00000	2055.28800
0.55553	0.00000	2055.28800
0.55936	0.00000	2041.76600
0.56318	0.00000	2041.76600
0.56700	0.00000	2041.76600
0.57083	0.00000	2041.76600
0.57465	0.00000	2023.73700
0.57847	0.00000	2023.73700
0.58229	0.00000	2023.73700
0.58611	0.00000	2006.97800
0.58993	0.00000	2006.97800
0.59375	0.00000	2006.97800
0.59757	0.00000	2006.97800
0.60140	0.00000	1987.68000
0.60522	0.00000	1987.68000
0.60904	0.00000	1987.68000
0.61287	0.00000	1970.57000
0.61668	0.00000	1970.57000
0.62051	0.00000	1970.57000
0.62433	0.00000	1970.57000
0.62815	0.00000	1947.11500
0.63197	0.00000	1947.11500
0.63580	0.00000	1947.11500
0.63962	0.00000	1957.72000
0.64344	0.00000	1957.72000
0.64727	0.00000	1957.72000
0.65109	0.00000	1957.72000
0.65492	0.00000	1929.61100
0.65874	0.00000	1929.61100
0.66256	0.00000	1929.61100
0.66638	0.00000	1929.61100
0.67018	0.00000	1930.14700
0.67400	0.00000	1930.14700
0.67782	0.00000	1930.14700
0.68164	0.00000	1911.76400
0.68546	0.00000	1911.76400
0.68928	0.00000	1911.76400
0.69310	0.00000	1911.76400
0.69692	0.00000	1907.16900
0.70074	0.00000	1907.16900
0.70456	0.00000	1907.16900
0.70839	0.00000	1902.84600
0.71220	0.00000	1902.84600
0.71603	0.00000	1902.84600
0.71986	0.00000	1902.84600
0.72368	0.00000	1884.19100
0.72750	0.00000	1884.19100
0.73132	0.00000	1884.19100
0.73514	0.00000	1879.64100
0.73896	0.00000	1879.64100
0.74278	0.00000	1879.64100
0.74660	0.00000	1879.64100
0.75043	0.00000	1861.21300
0.75425	0.00000	1861.21300
0.75808	0.00000	1861.21300
0.76191	0.00000	1856.43500
0.76573	0.00000	1856.43500
0.76956	0.00000	1856.43500
0.77338	0.00000	1856.43500
0.77720	0.00000	1838.23500
0.78102	0.00000	1838.23500
0.78484	0.00000	1838.23500
0.78867	0.00000	1833.23000
0.79251	0.00000	1833.23000
0.79633	0.00000	1833.23000
0.80017	0.00000	1833.23000
0.80399	0.00000	1819.85200
0.80782	0.00000	1819.85200
0.81164	0.00000	1819.85200
0.81547	0.00000	1814.66500
0.81930	0.00000	1814.66500
0.82312	0.00000	1814.66500
0.82695	0.00000	1814.66500
0.83077	0.00000	1819.30700
0.83459	0.00000	1819.30700
0.83842	0.00000	1819.30700
0.84224	0.00000	1818.75000
0.84607	0.00000	1818.75000
0.84990	0.00000	1818.75000
0.85373	0.00000	1818.75000
0.85755	0.00000	1805.38300
0.86137	0.00000	1805.38300
0.86519	0.00000	1805.38300
0.86900	0.00000	1800.00000
0.87282	0.00000	1800.00000
0.87664	0.00000	1800.00000
0.88047	0.00000	1800.00000
0.88429	0.00000	1791.46000
0.88813	0.00000	1791.46000
0.89195	0.00000	1791.46000
0.89577	0.00000	1790.62500
0.89960	0.00000	1790.62500
0.90342	0.00000	1790.62500
0.90724	0.00000	1785.93700
0.91106	0.00000	1785.93700
0.91488	0.00000	1785.93700
0.91870	0.00000	1785.93700
0.92254	0.00000	1776.56200
0.92636	0.00000	1776.56200
0.93018	0.00000	1776.56200
0.93401	0.00000	1771.87500
0.93783	0.00000	1771.87500
0.94165	0.00000	1771.87500
0.94548	0.00000	1771.87500
0.94931	0.00000	1767.18700
0.95314	0.00000	1767.18700
0.95695	0.00000	1767.18700
0.96078	0.00000	1757.81200
0.96460	0.00000	1757.81200
0.96843	0.00000	1757.81200
0.97225	0.00000	1757.81200
0.97607	0.00000	1767.18700
0.97990	0.00000	1767.18700
0.98371	0.00000	1767.18700
0.98753	0.00000	1748.43700
0.99136	0.00000	1748.43700
0.99522	0.00000	1748.43700
0.99905	0.00000	1748.43700
1.00287	0.00000	1735.76700
1.00670	0.00000	1735.76700
1.01052	0.00000	1735.76700
1.01434	0.00000	1743.75000
1.01817	0.00000	1743.75000
1.02200	0.00000	1743.75000
1.02583	0.00000	1743.75000
1.02965	0.00000	1753.12500
1.03348	0.00000	1753.12500
1.03730	0.00000	1753.12500
1.04113	0.00000	1729.68700
1.04494	0.00000	1729.68700
1.04877	0.00000	1729.68700
1.05263	0.00000	1729.68700
1.05650	0.00000	1734.37500
1.06039	0.00000	1734.37500
1.06422	0.00000	1734.37500
1.06804	0.00000	1742.42400
1.07187	0.00000	1742.42400
1.07570	0.00000	1742.42400
1.07952	0.00000	1720.31200
1.08336	0.00000	1720.31200
1.08718	0.00000	1720.31200
1.09102	0.00000	1720.31200
1.09485	0.00000	1729.68700
1.09867	0.00000	1729.68700
1.10250	0.00000	1729.68700
1.10632	0.00000	1732.95400
1.11015	0.00000	1732.95400
1.11398	0.00000	1732.95400
1.11780	0.00000	1732.95400
1.12163	0.00000	1725.00000
1.12545	0.00000	1725.00000
1.12928	0.00000	1725.00000
1.13310	0.00000	1710.93700
1.13693	0.00000	1710.93700
1.14075	0.00000	1710.93700
1.14457	0.00000	1710.93700
1.14840	0.00000	1715.62500
1.15222	0.00000	1715.62500
1.15604	0.00000	1715.62500
1.15987	0.00000	1723.48400
1.16370	0.00000	1723.48400
1.16752	0.00000	1723.48400
1.17135	0.00000	1718.75000
1.17517	0.00000	1718.75000
1.17899	0.00000	1718.75000
1.18282	0.00000	1718.75000
1.18664	0.00000	1718.75000
1.19046	0.00000	1718.75000
1.19428	0.00000	1718.75000
1.19812	0.00000	1714.01500
1.20195	0.00000	1714.01500
1.20577	0.00000	1714.01500
1.20960	0.00000	1714.01500
1.21342	0.00000	1706.25000
1.21725	0.00000	1706.25000
1.22107	0.00000	1706.25000
1.22489	0.00000	1709.28000
1.22871	0.00000	1709.28000
1.23254	0.00000	1709.28000
1.23635	0.00000	1709.28000
1.24018	0.00000	1701.56200
1.24400	0.00000	1701.56200
1.24783	0.00000	1701.56200
1.25165	0.00000	1704.54500
1.25547	0.00000	1704.54500
1.25930	0.00000	1704.54500
1.26312	0.00000	1704.54500
1.26694	0.00000	1718.75000
1.27077	0.00000	1718.75000
1.27459	0.00000	1718.75000
1.27841	0.00000	1699.81000
1.28218	0.00000	1699.81000
1.28601	0.00000	1699.81000
1.28983	0.00000	1699.81000
1.29367	0.00000	1699.81000
1.29750	0.00000	1699.81000
1.30132	0.00000	1699.81000
1.30514	0.00000	1704.54500
1.30896	0.00000	1704.54500
1.31278	0.00000	1704.54500
1.31662	0.00000	1695.07500
1.32044	0.00000	1695.07500
1.32426	0.00000	1695.07500
1.32809	0.00000	1695.07500
1.33191	0.00000	1692.18700
1.33573	0.00000	1692.18700
1.33956	0.00000	1692.18700
1.34338	0.00000	1690.34000
1.34720	0.00000	1690.34000
1.35102	0.00000	1690.34000
1.35484	0.00000	1690.34000
1.35866	0.00000	1699.81000
1.36248	0.00000	1699.81000
1.36631	0.00000	1699.81000
1.37014	0.00000	1690.34000
1.37397	0.00000	1690.34000
1.37779	0.00000	1690.34000
1.38161	0.00000	1707.58900
1.38543	0.00000	1707.58900
1.38925	0.00000	1707.58900
1.39307	0.00000	1707.58900
1.39689	0.00000	1690.34000
1.40071	0.00000	1690.34000
1.40453	0.00000	1690.34000
1.40836	0.00000	1690.34000
1.41219	0.00000	1690.34000
1.41600	0.00000	1690.34000
1.41983	0.00000	1690.34000
1.42365	0.00000	1699.81000
1.42747	0.00000	1699.81000
1.43129	0.00000	1699.81000
1.43511	0.00000	1702.80600
1.43893	0.00000	1702.80600
1.44275	0.00000	1702.80600
1.44658	0.00000	1702.80600
1.45040	0.00000	1695.07500
1.45418	0.00000	1695.07500
1.45800	0.00000	1695.07500
1.46182	0.00000	1680.87100
1.46564	0.00000	1680.87100
1.46947	0.00000	1680.87100
1.47328	0.00000	1698.02300
1.47710	0.00000	1698.02300
1.48092	0.00000	1698.02300
1.48474	0.00000	1698.02300
1.48856	0.00000	1685.60600
1.49238	0.00000	1685.60600
1.49620	0.00000	1685.60600
1.50002	0.00000	1680.87100
1.50385	0.00000	1680.87100
1.50766	0.00000	1680.87100
1.51149	0.00000	1680.87100
1.51531	0.00000	1678.12500
1.51913	0.00000	1678.12500
1.52295	0.00000	1678.12500
1.52702	0.00000	1680.87100
1.53109	0.00000	1680.87100
1.53506	0.00000	1680.87100
1.53890	0.00000	1676.13600
1.54273	0.00000	1676.13600
1.54655	0.00000	1676.13600
1.55038	0.00000	1676.13600
1.55418	0.00000	1685.60600
1.55800	0.00000	1685.60600
1.56182	0.00000	1685.60600
1.56564	0.00000	1671.40100
1.56947	0.00000	1671.40100
1.57329	0.00000	1671.40100
1.57712	0.00000	1671.40100
1.58094	0.00000	1690.34000
1.58477	0.00000	1690.34000
1.58858	0.00000	1690.34000
1.59240	0.00000	1693.23900
1.59622	0.00000	1693.23900
1.60003	0.00000	1693.23900
1.60387	0.00000	1693.23900
1.60768	0.00000	1685.60600
1.61149	0.00000	1685.60600
1.61532	0.00000	1685.60600
1.61913	0.00000	1676.13600
1.62295	0.00000	1676.13600
1.62676	0.00000	1676.13600
1.63059	0.00000	1676.13600
1.63440	0.00000	1676.13600
1.63818	0.00000	1676.13600
1.64201	0.00000	1676.13600
1.64583	0.00000	1676.13600
1.64966	0.00000	1676.13600
1.65349	0.00000	1676.13600
1.65732	0.00000	1671.40100
1.66114	0.00000	1671.40100
1.66497	0.00000	1671.40100
1.66880	0.00000	1671.40100
1.67262	0.00000	1685.60600
1.67645	0.00000	1685.60600
1.68027	0.00000	1685.60600
1.68409	0.00000	1688.45600
1.68791	0.00000	1688.45600
1.69173	0.00000	1688.45600
1.69556	0.00000	1688.45600
1.69938	0.00000	1680.87100
1.70320	0.00000	1680.87100
1.70703	0.00000	1680.87100
1.71084	0.00000	1676.13600
1.71467	0.00000	1676.13600
1.71849	0.00000	1676.13600
1.72231	0.00000	1671.40100
1.72614	0.00000	1671.40100
1.72996	0.00000	1671.40100
1.73379	0.00000	1671.40100
1.73763	0.00000	1680.87100
1.74145	0.00000	1680.87100
1.74527	0.00000	1680.87100
1.74910	0.00000	1671.40100
1.75293	0.00000	1671.40100
1.75675	0.00000	1671.40100
1.76057	0.00000	1671.40100
1.76439	0.00000	1680.87100
1.76821	0.00000	1680.87100
1.77203	0.00000	1680.87100
1.77585	0.00000	1688.45600
1.77967	0.00000	1688.45600
1.78350	0.00000	1688.45600
1.78732	0.00000	1688.45600
1.79114	0.00000	1676.13600
1.79497	0.00000	1676.13600
1.79879	0.00000	1676.13600
1.80260	0.00000	1671.40100
1.80642	0.00000	1671.40100
1.81024	0.00000	1671.40100
1.81406	0.00000	1666.66600
1.81788	0.00000	1666.66600
1.82170	0.00000	1666.66600
1.82552	0.00000	1666.66600
1.82934	0.00000	1664.06200
1.83316	0.00000	1664.06200
1.83699	0.00000	1664.06200
1.84082	0.00000	1683.67300
1.84464	0.00000	1683.67300
1.84847	0.00000	1683.67300
1.85229	0.00000	1683.67300
1.85611	0.00000	1680.87100
1.85994	0.00000	1680.87100
1.86376	0.00000	1680.87100
1.86758	0.00000	1666.66600
1.87141	0.00000	1666.66600
1.87523	0.00000	1666.66600
1.87906	0.00000	1671.40100
1.88288	0.00000	1671.40100
1.88670	0.00000	1671.40100
1.89052	0.00000	1671.40100
1.89434	0.00000	1683.67300
1.89816	0.00000	1683.67300
1.90198	0.00000	1683.67300
1.90580	0.00000	1688.45600
1.90962	0.00000	1688.45600
1.91344	0.00000	1688.45600
1.91726	0.00000	1688.45600
1.92108	0.00000	1680.87100
1.92490	0.00000	1680.87100
1.92872	0.00000	1680.87100
1.93255	0.00000	1666.66600
1.93637	0.00000	1666.66600
1.94021	0.00000	1666.66600
1.94402	0.00000	1666.66600
1.94787	0.00000	1664.06200
1.95183	0.00000	1664.06200
1.95568	0.00000	1664.06200
1.95958	0.00000	1666.66600
1.96349	0.00000	1666.66600
1.96739	0.00000	1666.66600
1.97126	0.00000	1683.67300
1.97510	0.00000	1683.67300
1.97892	0.00000	1683.67300
1.98275	0.00000	1683.67300
1.98658	0.00000	1676.13600
1.99040	0.00000	1676.13600
1.99423	0.00000	1676.13600
1.99806	0.00000	1666.66600
2.00191	0.00000	1666.66600
2.00574	0.00000	1666.66600
2.00956	0.00000	1666.66600
2.01339	0.00000	1676.13600
2.01721	0.00000	1676.13600
2.02103	0.00000	1676.13600
2.02485	0.00000	1683.67300
2.02867	0.00000	1683.67300
2.03250	0.00000	1683.67300
2.03632	0.00000	1683.67300
2.04014	0.00000	1683.67300
2.04398	0.00000	1683.67300
2.04779	0.00000	1683.67300
2.05162	0.00000	1676.13600
2.05546	0.00000	1676.13600
2.05959	0.00000	1676.13600
2.06353	0.00000	1666.66600
2.06738	0.00000	1666.66600
2.07121	0.00000	1666.66600
2.07503	0.00000	1666.66600
2.07887	0.00000	1676.13600
2.08270	0.00000	1676.13600
2.08653	0.00000	1676.13600
2.09035	0.00000	1671.40100
2.09418	0.00000	1671.40100
2.09803	0.00000	1671.40100
2.10185	0.00000	1678.89000
2.10567	0.00000	1678.89000
2.10949	0.00000	1678.89000
2.11333	0.00000	1678.89000
2.11715	0.00000	1676.13600
2.12097	0.00000	1676.13600
2.12480	0.00000	1676.13600
2.12864	0.00000	1661.93100
2.13247	0.00000	1661.93100
2.13629	0.00000	1661.93100
2.14013	0.00000	1661.93100
2.14396	0.00000	1676.13600
2.14782	0.00000	1676.13600
2.15165	0.00000	1676.13600
2.15548	0.00000	1683.67300
2.15931	0.00000	1683.67300
2.16318	0.00000	1683.67300
2.16705	0.00000	1683.67300
2.17088	0.00000	1683.67300
2.17472	0.00000	1683.67300
2.17858	0.00000	1683.67300
2.18241	0.00000	1666.66600
2.18624	0.00000	1666.66600
2.19010	0.00000	1666.66600
2.19395	0.00000	1666.66600
2.19780	0.00000	1666.66600
2.20166	0.00000	1666.66600
2.20555	0.00000	1666.66600
2.20942	0.00000	1676.13600
2.21328	0.00000	1676.13600
2.21712	0.00000	1676.13600
2.22097	0.00000	1678.89000
2.22481	0.00000	1678.89000
2.22866	0.00000	1678.89000
2.23248	0.00000	1666.66600
2.23633	0.00000	1666.66600
2.24016	0.00000	1666.66600
2.24400	0.00000	1666.66600
2.24784	0.00000	1671.40100
2.25167	0.00000	1671.40100
2.25550	0.00000	1671.40100
2.25933	0.00000	1661.93100
2.26319	0.00000	1661.93100
2.26702	0.00000	1661.93100
2.27085	0.00000	1661.93100
2.27467	0.00000	1676.13600
2.27853	0.00000	1676.13600
2.28236	0.00000	1676.13600
2.28618	0.00000	1666.66600
2.29001	0.00000	1666.66600
2.29384	0.00000	1666.66600
2.29769	0.00000	1666.66600
2.30151	0.00000	1666.66600
2.30770	0.00000	1666.66600
2.31189	0.00000	1674.10700
2.31590	0.00000	1674.10700
2.31976	0.00000	1674.10700
2.32360	0.00000	1674.10700
2.32743	0.00000	1666.66600
2.33126	0.00000	1666.66600
2.33509	0.00000	1666.66600
2.33892	0.00000	1683.67300
2.34275	0.00000	1683.67300
2.34657	0.00000	1683.67300
2.35039	0.00000	1683.67300
2.35418	0.00000	1683.67300
2.35800	0.00000	1683.67300
2.36182	0.00000	1683.67300
2.36565	0.00000	1676.13600
2.36947	0.00000	1676.13600
2.37328	0.00000	1676.13600
2.37711	0.00000	1666.66600
2.38094	0.00000	1666.66600
2.38475	0.00000	1666.66600
2.38857	0.00000	1666.66600
2.39240	0.00000	1676.13600
2.39621	0.00000	1676.13600
2.40004	0.00000	1676.13600
2.40385	0.00000	1683.67300
2.40767	0.00000	1683.67300
2.41149	0.00000	1683.67300
2.41538	0.00000	1666.66600
2.41921	0.00000	1666.66600
2.42303	0.00000	1666.66600
2.42685	0.00000	1666.66600
2.43067	0.00000	1666.66600
2.43449	0.00000	1666.66600
2.43831	0.00000	1666.66600
2.44214	0.00000	1678.89000
2.44597	0.00000	1678.89000
2.44980	0.00000	1678.89000
2.45362	0.00000	1678.89000
2.45744	0.00000	1676.13600
2.46127	0.00000	1676.13600
2.46509	0.00000	1676.13600
2.46891	0.00000	1661.93100
2.47274	0.00000	1661.93100
2.47657	0.00000	1661.93100
2.48039	0.00000	1661.93100
2.48424	0.00000	1676.13600
2.48811	0.00000	1676.13600
2.49195	0.00000	1676.13600
2.49578	0.00000	1683.67300
2.49960	0.00000	1683.67300
2.50343	0.00000	1683.67300
2.50725	0.00000	1683.67300
2.51109	0.00000	1683.67300
2.51491	0.00000	1683.67300
2.51874	0.00000	1683.67300
2.52256	0.00000	1676.13600
2.52639	0.00000	1676.13600
2.53019	0.00000	1676.13600
2.53406	0.00000	1666.66600
2.53789	0.00000	1666.66600
2.54172	0.00000	1666.66600
2.54555	0.00000	1666.66600
2.54937	0.00000	1659.37500
2.55319	0.00000	1659.37500
2.55701	0.00000	1659.37500
2.56084	0.00000	1678.89000
2.56466	0.00000	1678.89000
2.56849	0.00000	1678.89000
2.57231	0.00000	1683.67300
2.57613	0.00000	1683.67300
2.57995	0.00000	1683.67300
2.58377	0.00000	1683.67300
2.58759	0.00000	1661.93100
2.59141	0.00000	1661.93100
2.59523	0.00000	1661.93100
2.59905	0.00000	1666.66600
2.60286	0.00000	1666.66600
2.60668	0.00000	1666.66600
2.61051	0.00000	1666.66600
2.61434	0.00000	1676.13600
2.61818	0.00000	1676.13600
2.62201	0.00000	1676.13600
2.62588	0.00000	1683.67300
2.62976	0.00000	1683.67300
2.63360	0.00000	1683.67300
2.63743	0.00000	1683.67300
2.64126	0.00000	1654.68700
2.64510	0.00000	1654.68700
2.64893	0.00000	1654.68700
2.65275	0.00000	1661.93100
2.65657	0.00000	1661.93100
2.66040	0.00000	1661.93100
2.66422	0.00000	1666.66600
2.66805	0.00000	1666.66600
2.67187	0.00000	1666.66600
2.67570	0.00000	1666.66600
2.67952	0.00000	1671.40100
2.68334	0.00000	1671.40100
2.68717	0.00000	1671.40100
2.69099	0.00000	1666.66600
2.69482	0.00000	1666.66600
2.69864	0.00000	1666.66600
2.70246	0.00000	1666.66600
2.70628	0.00000	1654.68700
2.71012	0.00000	1654.68700
2.71394	0.00000	1654.68700
2.71775	0.00000	1678.89000
2.72158	0.00000	1678.89000
2.72540	0.00000	1678.89000
2.72922	0.00000	1678.89000
2.73304	0.00000	1678.89000
2.73687	0.00000	1678.89000
2.74069	0.00000	1678.89000
2.74451	0.00000	1666.66600
2.74834	0.00000	1666.66600
2.75217	0.00000	1666.66600
2.75599	0.00000	1666.66600
2.75981	0.00000	1666.66600
2.76363	0.00000	1666.66600
2.76746	0.00000	1666.66600
2.77128	0.00000	1676.13600
2.77511	0.00000	1676.13600
2.77893	0.00000	1676.13600
2.78275	0.00000	1678.89000
2.78657	0.00000	1678.89000
2.79039	0.00000	1678.89000
2.79418	0.00000	1678.89000
2.79800	0.00000	1654.68700
2.80182	0.00000	1654.68700
2.80564	0.00000	1654.68700
2.80946	0.00000	1666.66600
2.81329	0.00000	1666.66600
2.81711	0.00000	1666.66600
2.82093	0.00000	1678.89000
2.82476	0.00000	1678.89000
2.82858	0.00000	1678.89000
2.83240	0.00000	1678.89000
2.83622	0.00000	1661.93100
2.84004	0.00000	1661.93100
2.84387	0.00000	1661.93100
2.84775	0.00000	1661.93100
2.85159	0.00000	1661.93100
2.85542	0.00000	1661.93100
2.85925	0.00000	1661.93100
2.86309	0.00000	1671.40100
2.86691	0.00000	1671.40100
2.87074	0.00000	1671.40100
2.87456	0.00000	1678.89000
2.87838	0.00000	1678.89000
2.88219	0.00000	1678.89000
2.88606	0.00000	1678.89000
2.88989	0.00000	1683.67300
2.89371	0.00000	1683.67300
2.89755	0.00000	1683.67300
2.90137	0.00000	1661.93100
2.90519	0.00000	1661.93100
2.90901	0.00000	1661.93100
2.91287	0.00000	1678.89000
2.91695	0.00000	1678.89000
2.92095	0.00000	1678.89000
2.92483	0.00000	1678.89000
2.92867	0.00000	1671.40100
2.93251	0.00000	1671.40100
2.93634	0.00000	1671.40100
2.94017	0.00000	1661.93100
2.94399	0.00000	1661.93100
2.94784	0.00000	1661.93100
2.95168	0.00000	1666.66600
2.95550	0.00000	1666.66600
2.95933	0.00000	1666.66600
2.96315	0.00000	1666.66600
2.96698	0.00000	1666.66600
2.97080	0.00000	1666.66600
2.97462	0.00000	1666.66600
2.97845	0.00000	1683.67300
2.98228	0.00000	1683.67300
2.98609	0.00000	1683.67300
2.98991	0.00000	1683.67300
2.99374	0.00000	1676.13600
2.99755	0.00000	1676.13600
3.00137	0.00000	1676.13600
3.00520	0.00000	1661.93100
3.00901	0.00000	1661.93100
3.01283	0.00000	1661.93100
3.01666	0.00000	1661.93100
3.02052	0.00000	1671.40100
3.02436	0.00000	1671.40100
3.02818	0.00000	1671.40100
3.03200	0.00000	1661.93100
3.03585	0.00000	1661.93100
3.03967	0.00000	1661.93100
3.04349	0.00000	1657.19600
3.04733	0.00000	1657.19600
3.05118	0.00000	1657.19600
3.05502	0.00000	1657.19600
3.05885	0.00000	1659.37500
3.06269	0.00000	1659.37500
3.06651	0.00000	1659.37500
3.07033	0.00000	1674.10700
3.07415	0.00000	1674.10700
3.07798	0.00000	1674.10700
3.08181	0.00000	1674.10700
3.08563	0.00000	1671.40100
3.08945	0.00000	1671.40100
3.09326	0.00000	1671.40100
3.09710	0.00000	1661.93100
3.10092	0.00000	1661.93100
3.10474	0.00000	1661.93100
3.10857	0.00000	1661.93100
3.11239	0.00000	1661.93100
3.11621	0.00000	1661.93100
3.12003	0.00000	1661.93100
3.12386	0.00000	1666.66600
3.12768	0.00000	1666.66600
3.13151	0.00000	1666.66600
3.13533	0.00000	1661.93100
3.13917	0.00000	1661.93100
3.14299	0.00000	1661.93100
3.14681	0.00000	1661.93100
3.15064	0.00000	1654.68700
3.15446	0.00000	1654.68700
3.15828	0.00000	1654.68700
3.16210	0.00000	1678.89000
3.16592	0.00000	1678.89000
3.16974	0.00000	1678.89000
3.17356	0.00000	1678.89000
3.17738	0.00000	1671.40100
3.18120	0.00000	1671.40100
3.18502	0.00000	1671.40100
3.18884	0.00000	1661.93100
3.19266	0.00000	1661.93100
3.19649	0.00000	1661.93100
3.20032	0.00000	1661.93100
3.20415	0.00000	1661.93100
3.20797	0.00000	1661.93100
3.21179	0.00000	1661.93100
3.21564	0.00000	1671.40100
3.21949	0.00000	1671.40100
3.22332	0.00000	1671.40100
3.22714	0.00000	1678.89000
3.23097	0.00000	1678.89000
3.23479	0.00000	1678.89000
3.23861	0.00000	1678.89000
3.24244	0.00000	1659.37500
3.24627	0.00000	1659.37500
3.25009	0.00000	1659.37500
3.25391	0.00000	1661.93100
3.25774	0.00000	1661.93100
3.26157	0.00000	1661.93100
3.26539	0.00000	1678.89000
3.26921	0.00000	1678.89000
3.27303	0.00000	1678.89000
3.27685	0.00000	1678.89000
3.28067	0.00000	1666.66600
3.28449	0.00000	1666.66600
3.28831	0.00000	1666.66600
3.29213	0.00000	1661.93100
3.29595	0.00000	1661.93100
3.29978	0.00000	1661.93100
3.30363	0.00000	1661.93100
3.30750	0.00000	1676.13600
3.31132	0.00000	1676.13600
3.31515	0.00000	1676.13600
3.31897	0.00000	1678.89000
3.32279	0.00000	1678.89000
3.32662	0.00000	1678.89000
3.33045	0.00000	1678.89000
3.33427	0.00000	1666.66600
3.33809	0.00000	1666.66600
3.34191	0.00000	1666.66600
3.34574	0.00000	1666.66600
3.34956	0.00000	1666.66600
3.35337	0.00000	1666.66600
3.35720	0.00000	1666.66600
3.36103	0.00000	1666.66600
3.36486	0.00000	1666.66600
3.36868	0.00000	1666.66600
3.37250	0.00000	1671.40100
3.37634	0.00000	1671.40100
3.38016	0.00000	1671.40100
3.38398	0.00000	1666.66600
3.38780	0.00000	1666.66600
3.39162	0.00000	1666.66600
3.39544	0.00000	1666.66600
3.39926	0.00000	1654.68700
3.40308	0.00000	1654.68700
3.40691	0.00000	1654.68700
3.41074	0.00000	1674.10700
3.41455	0.00000	1674.10700
3.41838	0.00000	1674.10700
3.42218	0.00000	1674.10700
3.42601	0.00000	1666.66600
3.42983	0.00000	1666.66600
3.43364	0.00000	1666.66600
3.43747	0.00000	1661.93100
3.44129	0.00000	1661.93100
3.44511	0.00000	1661.93100
3.44893	0.00000	1661.93100
3.45276	0.00000	1661.93100
3.45658	0.00000	1661.93100
3.46041	0.00000	1661.93100
3.46424	0.00000	1671.40100
3.46806	0.00000	1671.40100
3.47188	0.00000	1671.40100
3.47571	0.00000	1661.93100
3.47954	0.00000	1661.93100
3.48336	0.00000	1661.93100
3.48717	0.00000	1661.93100
3.49100	0.00000	1659.37500
3.49482	0.00000	1659.37500
3.49864	0.00000	1659.37500
3.50246	0.00000	1666.66600
3.50628	0.00000	1666.66600
3.51011	0.00000	1666.66600
3.51393	0.00000	1674.10700
3.51779	0.00000	1674.10700
3.52161	0.00000	1674.10700
3.52544	0.00000	1674.10700
3.52926	0.00000	1671.40100
3.53308	0.00000	1671.40100
3.53691	0.00000	1671.40100
3.54073	0.00000	1661.93100
3.54456	0.00000	1661.93100
3.54839	0.00000	1661.93100
3.55221	0.00000	1661.93100
3.55603	0.00000	1671.40100
3.55986	0.00000	1671.40100
3.56369	0.00000	1671.40100
3.56751	0.00000	1678.89000
3.57131	0.00000	1678.89000
3.57514	0.00000	1678.89000
3.57897	0.00000	1678.89000
3.58279	0.00000	1671.40100
3.58661	0.00000	1671.40100
3.59043	0.00000	1671.40100
3.59426	0.00000	1661.93100
3.59808	0.00000	1661.93100
3.60190	0.00000	1661.93100
3.60573	0.00000	1666.66600
3.60956	0.00000	1666.66600
3.61338	0.00000	1666.66600
3.61720	0.00000	1666.66600
3.62101	0.00000	1666.66600
3.62483	0.00000	1666.66600
3.62865	0.00000	1666.66600
3.63247	0.00000	1661.93100
3.63629	0.00000	1661.93100
3.64012	0.00000	1661.93100
3.64394	0.00000	1661.93100
3.64776	0.00000	1671.40100
3.65158	0.00000	1671.40100
3.65540	0.00000	1671.40100
3.65922	0.00000	1674.10700
3.66305	0.00000	1674.10700
3.66686	0.00000	1674.10700
3.67068	0.00000	1678.89000
3.67450	0.00000	1678.89000
3.67832	0.00000	1678.89000
3.68214	0.00000	1678.89000
3.68597	0.00000	1661.93100
3.68979	0.00000	1661.93100
3.69360	0.00000	1661.93100
3.69743	0.00000	1678.89000
3.70125	0.00000	1678.89000
3.70508	0.00000	1678.89000
3.70890	0.00000	1678.89000
3.71272	0.00000	1676.13600
3.71654	0.00000	1676.13600
3.72036	0.00000	1676.13600
3.72418	0.00000	1661.93100
3.72801	0.00000	1661.93100
3.73183	0.00000	1661.93100
3.73565	0.00000	1661.93100
3.73947	0.00000	1671.40100
3.74330	0.00000	1671.40100
3.74711	0.00000	1671.40100
3.75094	0.00000	1678.89000
3.75475	0.00000	1678.89000
3.75857	0.00000	1678.89000
3.76240	0.00000	1678.89000
3.76618	0.00000	1678.89000
3.77000	0.00000	1678.89000
3.77381	0.00000	1678.89000
3.77764	0.00000	1666.66600
3.78147	0.00000	1666.66600
3.78529	0.00000	1666.66600
3.78911	0.00000	1661.93100
3.79292	0.00000	1661.93100
3.79675	0.00000	1661.93100
3.80057	0.00000	1661.93100
3.80440	0.00000	1671.40100
3.80822	0.00000	1671.40100
3.81204	0.00000	1671.40100
3.81586	0.00000	1666.66600
3.81969	0.00000	1666.66600
3.82351	0.00000	1666.66600
3.82734	0.00000	1666.66600
3.83116	0.00000	1671.40100
3.83498	0.00000	1671.40100
3.83880	0.00000	1671.40100
3.84262	0.00000	1678.89000
3.84644	0.00000	1678.89000
3.85026	0.00000	1678.89000
3.85409	0.00000	1678.89000
3.85795	0.00000	1678.89000
3.86178	0.00000	1678.89000
3.86560	0.00000	1678.89000
3.86942	0.00000	1671.40100
3.87324	0.00000	1671.40100
3.87707	0.00000	1671.40100
3.88090	0.00000	1661.93100
3.88472	0.00000	1661.93100
3.88855	0.00000	1661.93100
3.89236	0.00000	1661.93100
3.89619	0.00000	1671.40100
3.90002	0.00000	1671.40100
3.90384	0.00000	1671.40100
3.90766	0.00000	1678.89000
3.91149	0.00000	1678.89000
3.91532	0.00000	1678.89000
3.91914	0.00000	1683.67300
3.92296	0.00000	1683.67300
3.92678	0.00000	1683.67300
3.93060	0.00000	1683.67300
3.93442	0.00000	1661.93100
3.93825	0.00000	1661.93100
3.94207	0.00000	1661.93100
3.94589	0.00000	1678.89000
3.94973	0.00000	1678.89000
3.95355	0.00000	1678.89000
3.95737	0.00000	1678.89000
3.96120	0.00000	1671.40100
3.96502	0.00000	1671.40100
3.96885	0.00000	1671.40100
3.97267	0.00000	1666.66600
3.97649	0.00000	1666.66600
3.98032	0.00000	1666.66600
3.98415	0.00000	1666.66600
3.98797	0.00000	1671.40100
3.99181	0.00000	1671.40100
3.99567	0.00000	1671.40100
3.99950	0.00000	1683.67300
4.00333	0.00000	1683.67300
4.00716	0.00000	1683.67300
4.01098	0.00000	1683.67300
4.01481	0.00000	1683.67300
4.01864	0.00000	1683.67300
4.02247	0.00000	1683.67300
4.02629	0.00000	1671.40100
4.03011	0.00000	1671.40100
4.03393	0.00000	1671.40100
4.03775	0.00000	1661.93100
4.04157	0.00000	1661.93100
4.04540	0.00000	1661.93100
4.04922	0.00000	1661.93100
4.05308	0.00000	1671.40100
4.05692	0.00000	1671.40100
4.06077	0.00000	1671.40100
4.06460	0.00000	1678.89000
4.06842	0.00000	1678.89000
4.07224	0.00000	1678.89000
4.07606	0.00000	1678.89000
4.07989	0.00000	1666.66600
4.08372	0.00000	1666.66600
4.08754	0.00000	1666.66600
4.09136	0.00000	1661.93100
4.09518	0.00000	1661.93100
4.09900	0.00000	1661.93100
4.10283	0.00000	1678.89000
4.10666	0.00000	1678.89000
4.11048	0.00000	1678.89000
4.11430	0.00000	1678.89000
4.11812	0.00000	1676.13600
4.12194	0.00000	1676.13600
4.12576	0.00000	1676.13600
4.12958	0.00000	1661.93100
4.13342	0.00000	1661.93100
4.13724	0.00000	1661.93100
4.14107	0.00000	1661.93100
4.14489	0.00000	1671.40100
4.14871	0.00000	1671.40100
4.15253	0.00000	1671.40100
4.15635	0.00000	1678.89000
4.16018	0.00000	1678.89000
4.16400	0.00000	1678.89000
4.16782	0.00000	1678.89000
4.17164	0.00000	1678.89000
4.17547	0.00000	1678.89000
4.17929	0.00000	1678.89000
4.18311	0.00000	1666.66600
4.18694	0.00000	1666.66600
4.19077	0.00000	1666.66600
4.19459	0.00000	1678.89000
4.19842	0.00000	1678.89000
4.20225	0.00000	1678.89000
4.20606	0.00000	1678.89000
4.20988	0.00000	1676.13600
4.21371	0.00000	1676.13600
4.21754	0.00000	1676.13600
4.22136	0.00000	1661.93100
4.22519	0.00000	1661.93100
4.22902	0.00000	1661.93100
4.23284	0.00000	1661.93100
4.23666	0.00000	1666.66600
4.24049	0.00000	1666.66600
4.24430	0.00000	1666.66600
4.24813	0.00000	1683.67300
4.25195	0.00000	1683.67300
4.25577	0.00000	1683.67300
4.25959	0.00000	1678.89000
4.26342	0.00000	1678.89000
4.26724	0.00000	1678.89000
4.27106	0.00000	1678.89000
4.27488	0.00000	1671.40100
4.27870	0.00000	1671.40100
4.28252	0.00000	1671.40100
4.28634	0.00000	1666.66600
4.29016	0.00000	1666.66600
4.29399	0.00000	1666.66600
4.29781	0.00000	1666.66600
4.30164	0.00000	1671.40100
4.30547	0.00000	1671.40100
4.30929	0.00000	1671.40100
4.31311	0.00000	1678.89000
4.31693	0.00000	1678.89000
4.32075	0.00000	1678.89000
4.32457	0.00000	1661.93100
4.32839	0.00000	1661.93100
4.33221	0.00000	1661.93100
4.33603	0.00000	1661.93100
4.33985	0.00000	1678.89000
4.34366	0.00000	1678.89000
4.34748	0.00000	1678.89000
4.35130	0.00000	1683.67300
4.35512	0.00000	1683.67300
4.35895	0.00000	1683.67300
4.36278	0.00000	1683.67300
4.36660	0.00000	1671.40100
4.37043	0.00000	1671.40100
4.37426	0.00000	1671.40100
4.37808	0.00000	1661.93100
4.38191	0.00000	1661.93100
4.38573	0.00000	1661.93100
4.38955	0.00000	1661.93100
4.39336	0.00000	1671.40100
4.39718	0.00000	1671.40100
4.40100	0.00000	1671.40100
4.40482	0.00000	1678.89000
4.40864	0.00000	1678.89000
4.41246	0.00000	1678.89000
4.41628	0.00000	1678.89000
4.42010	0.00000	1678.89000
4.42393	0.00000	1678.89000
4.42775	0.00000	1678.89000
4.43156	0.00000	1666.66600
4.43538	0.00000	1666.66600
4.43921	0.00000	1666.66600
4.44303	0.00000	1678.89000
4.44685	0.00000	1678.89000
4.45067	0.00000	1678.89000
4.45449	0.00000	1678.89000
4.45831	0.00000	1671.40100
4.46213	0.00000	1671.40100
4.46597	0.00000	1671.40100
4.46979	0.00000	1661.93100
4.47361	0.00000	1661.93100
4.47743	0.00000	1661.93100
4.48126	0.00000	1661.93100
4.48508	0.00000	1671.40100
4.48890	0.00000	1671.40100
4.49272	0.00000	1671.40100
4.49655	0.00000	1678.89000
4.50037	0.00000	1678.89000
4.50419	0.00000	1678.89000
4.50802	0.00000	1683.67300
4.51184	0.00000	1683.67300
4.51566	0.00000	1683.67300
4.51949	0.00000	1683.67300
4.52331	0.00000	1666.66600
4.52712	0.00000	1666.66600
4.53095	0.00000	1666.66600
4.53477	0.00000	1661.93100
4.53860	0.00000	1661.93100
4.54242	0.00000	1661.93100
4.54625	0.00000	1661.93100
4.55007	0.00000	1671.40100
4.55388	0.00000	1671.40100
4.55771	0.00000	1671.40100
4.56153	0.00000	1661.93100
4.56536	0.00000	1661.93100
4.56918	0.00000	1661.93100
4.57300	0.00000	1666.66600
4.57682	0.00000	1666.66600
4.58064	0.00000	1666.66600
4.58446	0.00000	1666.66600
4.58829	0.00000	1683.67300
4.59210	0.00000	1683.67300
4.59593	0.00000	1683.67300
4.59976	0.00000	1678.89000
4.60359	0.00000	1678.89000
4.60741	0.00000	1678.89000
4.61124	0.00000	1678.89000
4.61506	0.00000	1671.40100
4.61888	0.00000	1671.40100
4.62271	0.00000	1671.40100
4.62653	0.00000	1661.93100
4.63035	0.00000	1661.93100
4.63418	0.00000	1661.93100
4.63801	0.00000	1661.93100
4.64182	0.00000	1676.13600
4.64565	0.00000	1676.13600
4.64948	0.00000	1676.13600
4.65330	0.00000	1678.89000
4.65712	0.00000	1678.89000
4.66095	0.00000	1678.89000
4.66477	0.00000	1657.19600
4.66860	0.00000	1657.19600
4.67243	0.00000	1657.19600
4.67625	0.00000	1657.19600
4.68007	0.00000	1683.67300
4.68389	0.00000	1683.67300
4.68771	0.00000	1683.67300
4.69153	0.00000	1683.67300
4.69535	0.00000	1683.67300
4.69918	0.00000	1683.67300
4.70300	0.00000	1683.67300
4.70682	0.00000	1676.13600
4.71064	0.00000	1676.13600
4.71446	0.00000	1676.13600
4.71827	0.00000	1666.66600
4.72210	0.00000	1666.66600
4.72592	0.00000	1666.66600
4.72973	0.00000	1666.66600
4.73355	0.00000	1671.40100
4.73737	0.00000	1671.40100
4.74119	0.00000	1671.40100
4.74501	0.00000	1678.89000
4.74883	0.00000	1678.89000
4.75265	0.00000	1678.89000
4.75648	0.00000	1678.89000
4.76032	0.00000	1678.89000
4.76414	0.00000	1678.89000
4.76797	0.00000	1678.89000
4.77180	0.00000	1671.40100
4.77562	0.00000	1671.40100
4.77944	0.00000	1671.40100
4.78327	0.00000	1661.93100
4.78709	0.00000	1661.93100
4.79092	0.00000	1661.93100
4.79474	0.00000	1661.93100
4.79856	0.00000	1671.40100
4.80238	0.00000	1671.40100
4.80618	0.00000	1671.40100
4.81000	0.00000	1674.10700
4.81383	0.00000	1674.10700
4.81764	0.00000	1674.10700
4.82147	0.00000	1661.93100
4.82528	0.00000	1661.93100
4.82910	0.00000	1661.93100
4.83293	0.00000	1661.93100
4.83676	0.00000	1683.67300
4.84058	0.00000	1683.67300
4.84441	0.00000	1683.67300
4.84824	0.00000	1674.10700
4.85206	0.00000	1674.10700
4.85588	0.00000	1674.10700
4.85970	0.00000	1674.10700
4.86353	0.00000	1671.40100
4.86736	0.00000	1671.40100
4.87118	0.00000	1671.40100
4.87501	0.00000	1657.19600
4.87883	0.00000	1657.19600
4.88266	0.00000	1657.19600
4.88648	0.00000	1657.19600
4.89031	0.00000	1666.66600
4.89413	0.00000	1666.66600
4.89795	0.00000	1666.66600
4.90178	0.00000	1661.93100
4.90560	0.00000	1661.93100
4.90943	0.00000	1661.93100
4.91325	0.00000	1657.19600
4.91707	0.00000	1657.19600
4.92089	0.00000	1657.19600
4.92472	0.00000	1657.19600
4.92854	0.00000	1666.66600
4.93236	0.00000	1666.66600
4.93618	0.00000	1666.66600
4.94000	0.00000	1678.89000
4.94382	0.00000	1678.89000
4.94765	0.00000	1678.89000
4.95150	0.00000	1678.89000
4.95533	0.00000	1654.68700
4.95916	0.00000	1654.68700
4.96299	0.00000	1654.68700
4.96681	0.00000	1666.66600
4.97063	0.00000	1666.66600
4.97445	0.00000	1666.66600
4.97828	0.00000	1666.66600
4.98210	0.00000	1666.66600
4.98592	0.00000	1666.66600
4.98975	0.00000	1666.66600
4.99358	0.00000	1657.19600
4.99741	0.00000	1657.19600
5.00177	0.00000	1657.19600
5.00563	0.00000	1661.93100
5.00947	0.00000	1661.93100
5.01330	0.00000	1661.93100
5.01715	0.00000	1661.93100
5.02099	0.00000	1676.13600
5.02482	0.00000	1676.13600
5.02866	0.00000	1676.13600
5.03255	0.00000	1925.55100
5.03642	0.00000	1925.55100
5.04025	0.00000	1925.55100
5.04409	0.00000	1925.55100
5.04791	0.00000	2352.35000
5.05174	0.00000	2352.35000
5.05557	0.00000	2352.35000
5.05940	0.00000	2352.35000
5.06323	0.00000	2687.23000
5.06706	0.00000	2687.23000
5.07090	0.00000	2687.23000
5.07473	0.00000	2687.23000
5.07856	0.00000	3007.81200
5.08239	0.00000	3007.81200
5.08618	0.00000	3007.81200
5.09001	0.00000	3007.81200
5.09384	0.00000	3228.75000
5.09769	0.00000	3228.75000
5.10151	0.00000	3228.75000
5.10534	0.00000	3228.75000
5.10918	0.00000	3228.75000
5.11301	0.00000	3400.24000
5.11685	0.00000	3400.24000
5.12068	0.00000	3400.24000
5.12452	0.00000	3400.24000
5.12835	0.00000	3554.68700
5.13219	0.00000	3554.68700
5.13601	0.00000	3554.68700
5.13985	0.00000	3554.68700
5.14368	0.00000	3554.68700
5.14751	0.00000	3650.04600
5.15131	0.00000	3650.04600
5.15516	0.00000	3650.04600
5.15898	0.00000	3650.04600
5.16281	0.00000	3650.04600
5.16664	0.00000	3736.51000
5.17048	0.00000	3736.51000
5.17432	0.00000	3736.51000
5.17815	0.00000	3736.51000
5.18199	0.00000	3823.66000
5.18583	0.00000	3823.66000
5.18966	0.00000	3823.66000
5.19349	0.00000	3823.66000
5.19733	0.00000	3823.66000
5.20116	0.00000	3905.14900
5.20500	0.00000	3905.14900
5.20882	0.00000	3905.14900
5.21265	0.00000	3905.14900
5.21650	0.00000	3905.14900
5.22033	0.00000	3964.84300
5.22417	0.00000	3964.84300
5.22800	0.00000	3964.84300
5.23183	0.00000	3964.84300
5.23566	0.00000	3964.84300
5.23948	0.00000	4015.08600
5.24332	0.00000	4015.08600
5.24715	0.00000	4015.08600
5.25097	0.00000	4015.08600
5.25480	0.00000	4015.08600
5.25863	0.00000	4043.36700
5.26247	0.00000	4043.36700
5.26630	0.00000	4043.36700
5.27013	0.00000	4043.36700
5.27397	0.00000	4043.36700
5.27781	0.00000	4091.19900
5.28165	0.00000	4091.19900
5.28548	0.00000	4091.19900
5.28931	0.00000	4091.19900
5.29314	0.00000	4091.19900
5.29697	0.00000	4130.06700
5.30081	0.00000	4130.06700
5.30465	0.00000	4130.06700
5.30848	0.00000	4130.06700
5.31232	0.00000	4130.06700
5.31616	0.00000	4131.25000
5.32000	0.00000	4131.25000
5.32383	0.00000	4131.25000
5.32766	0.00000	4131.25000
5.33149	0.00000	4131.25000
5.33532	0.00000	4168.75000
5.33915	0.00000	4168.75000
5.34298	0.00000	4168.75000
5.34682	0.00000	4168.75000
5.35065	0.00000	4168.75000
5.35448	0.00000	4168.75000
5.35832	0.00000	4175.28900
5.36215	0.00000	4175.28900
5.36599	0.00000	4175.28900
5.36983	0.00000	4175.28900
5.37367	0.00000	4175.28900
5.37750	0.00000	4200.12400
5.38133	0.00000	4200.12400
5.38517	0.00000	4200.12400
5.38901	0.00000	4200.12400
5.39285	0.00000	4200.12400
5.39668	0.00000	4221.85400
5.40051	0.00000	4221.85400
5.40435	0.00000	4221.85400
5.40818	0.00000	4221.85400
5.41201	0.00000	4221.85400
5.41585	0.00000	4215.66600
5.41969	0.00000	4215.66600
5.42353	0.00000	4215.66600
5.42736	0.00000	4215.66600
5.43119	0.00000	4215.66600
5.43502	0.00000	4231.08500
5.43886	0.00000	4231.08500
5.44269	0.00000	4231.08500
5.44651	0.00000	4231.08500
5.45034	0.00000	4231.08500
5.45417	0.00000	4252.67300
5.45800	0.00000	4252.67300
5.46184	0.00000	4252.67300
5.46566	0.00000	4252.67300
5.46949	0.00000	4252.67300
5.47332	0.00000	4252.67300
5.47716	0.00000	4240.19600
5.48099	0.00000	4240.19600
5.48482	0.00000	4240.19600
5.48865	0.00000	4240.19600
5.49249	0.00000	4240.19600
5.49632	0.00000	4252.45100
5.50015	0.00000	4252.45100
5.50398	0.00000	4252.45100
5.50780	0.00000	4252.45100
5.51163	0.00000	4252.45100
5.51547	0.00000	4277.34400
5.51931	0.00000	4277.34400
5.52314	0.00000	4277.34400
5.52697	0.00000	4277.34400
5.53080	0.00000	4277.34400
5.53464	0.00000	4261.64200
5.53848	0.00000	4261.64200
5.54231	0.00000	4261.64200
5.54615	0.00000	4261.64200
5.54998	0.00000	4261.64200
5.55382	0.00000	4261.64200
5.55765	0.00000	4286.15200
5.56148	0.00000	4286.15200
5.56532	0.00000	4286.15200
5.56915	0.00000	4286.15200
5.57298	0.00000	4286.15200
5.57681	0.00000	4273.89700
5.58065	0.00000	4273.89700
5.58448	0.00000	4273.89700
5.58830	0.00000	4273.89700
5.59213	0.00000	4273.89700
5.59597	0.00000	4280.02400
5.59979	0.00000	4280.02400
5.60362	0.00000	4280.02400
5.60745	0.00000	4280.02400
5.61128	0.00000	4280.02400
5.61511	0.00000	4292.28000
5.61894	0.00000	4292.28000
5.62276	0.00000	4292.28000
5.62659	0.00000	4292.28000
5.63043	0.00000	4292.28000
5.63426	0.00000	4264.40700
5.63808	0.00000	4264.40700
5.64191	0.00000	4264.40700
5.64574	0.00000	4264.40700
5.64957	0.00000	4264.40700
5.65340	0.00000	4264.40700
5.65724	0.00000	4270.49500
5.66107	0.00000	4270.49500
5.66490	0.00000	4270.49500
5.66874	0.00000	4270.49500
5.67256	0.00000	4270.49500
5.67640	0.00000	4280.02400
5.68024	0.00000	4280.02400
5.68407	0.00000	4280.02400
5.68791	0.00000	4280.02400
5.69174	0.00000	4280.02400
5.69557	0.00000	4283.08800
5.69941	0.00000	4283.08800
5.70324	0.00000	4283.08800
5.70707	0.00000	4283.08800
5.71091	0.00000	4283.08800
5.71474	0.00000	4292.28000
5.71857	0.00000	4292.28000
5.72240	0.00000	4292.28000
5.72624	0.00000	4292.28000
5.73007	0.00000	4292.28000
5.73390	0.00000	4292.28000
5.73773	0.00000	4291.80200
5.74157	0.00000	4291.80200
5.74540	0.00000	4291.80200
5.74924	0.00000	4291.80200
5.75307	0.00000	4291.80200
5.75690	0.00000	4267.45100
5.76074	0.00000	4267.45100
5.76458	0.00000	4267.45100
5.76841	0.00000	4267.45100
5.77224	0.00000	4267.45100
5.77608	0.00000	4298.40600
5.77992	0.00000	4298.40600
5.78374	0.00000	4298.40600
5.78758	0.00000	4298.40600
5.79142	0.00000	4298.40600
5.79525	0.00000	4307.59800
5.79910	0.00000	4307.59800
5.80293	0.00000	4307.59800
5.80680	0.00000	4307.59800
5.81066	0.00000	4307.59800
5.81451	0.00000	4307.59800
5.81835	0.00000	4285.71400
5.82218	0.00000	4285.71400
5.82602	0.00000	4285.71400
5.82985	0.00000	4285.71400
5.83369	0.00000	4285.71400
5.83754	0.00000	4285.71400
5.84139	0.00000	4285.71400
5.84522	0.00000	4285.71400
5.84905	0.00000	4285.71400
5.85288	0.00000	4285.71400
5.85671	0.00000	4282.67000
5.86055	0.00000	4282.67000
5.86438	0.00000	4282.67000
5.86821	0.00000	4282.67000
5.87204	0.00000	4282.67000
5.87587	0.00000	4279.62700
5.87972	0.00000	4279.62700
5.88355	0.00000	4279.62700
5.88738	0.00000	4279.62700
5.89121	0.00000	4279.62700
5.89505	0.00000	4279.62700
5.89888	0.00000	4297.88900
5.90272	0.00000	4297.88900
5.90656	0.00000	4297.88900
5.91039	0.00000	4297.88900
5.91418	0.00000	4297.88900
5.91802	0.00000	4298.40600
5.92184	0.00000	4298.40600
5.92567	0.00000	4298.40600
5.92951	0.00000	4298.40600
5.93334	0.00000	4298.40600
5.93716	0.00000	4285.71400
5.94101	0.00000	4285.71400
5.94484	0.00000	4285.71400
5.94867	0.00000	4285.71400
5.95250	0.00000	4285.71400
5.95633	0.00000	4279.62700
5.96016	0.00000	4279.62700
5.96399	0.00000	4279.62700
5.96782	0.00000	4279.62700
5.97165	0.00000	4279.62700
5.97548	0.00000	4279.62700
5.97931	0.00000	4294.84500
5.98314	0.00000	4294.84500
5.98697	0.00000	4294.84500
5.99080	0.00000	4294.84500
5.99464	0.00000	4294.84500
5.99847	0.00000	4288.75800
6.00230	0.00000	4288.75800
6.00614	0.00000	4288.75800
6.00997	0.00000	4288.75800
6.01380	0.00000	4288.75800
6.01763	0.00000	4304.53400
6.02146	0.00000	4304.53400
6.02529	0.00000	4304.53400
6.02912	0.00000	4304.53400
6.03294	0.00000	4304.53400
6.03679	0.00000	4307.59800
6.04062	0.00000	4307.59800
6.04446	0.00000	4307.59800
6.04829	0.00000	4307.59800
6.05212	0.00000	4307.59800
6.05596	0.00000	4307.59800
6.05980	0.00000	4300.93300
6.06363	0.00000	4300.93300
6.06746	0.00000	4300.93300
6.07129	0.00000	4300.93300
6.07513	0.00000	4300.93300
6.07896	0.00000	4276.58300
6.08280	0.00000	4276.58300
6.08663	0.00000	4276.58300
6.09046	0.00000	4276.58300
6.09429	0.00000	4276.58300
6.09812	0.00000	4279.62700
6.10196	0.00000	4279.62700
6.10579	0.00000	4279.62700
6.10962	0.00000	4279.62700
6.11345	0.00000	4279.62700
6.11727	0.00000	4285.71400
6.12111	0.00000	4285.71400
6.12495	0.00000	4285.71400
6.12878	0.00000	4285.71400
6.13261	0.00000	4285.71400
6.13645	0.00000	4285.71400
6.14027	0.00000	4307.02100
6.14410	0.00000	4307.02100
6.14793	0.00000	4307.02100
6.15176	0.00000	4307.02100
6.15559	0.00000	4307.02100
6.15941	0.00000	4294.84500
6.16325	0.00000	4294.84500
6.16708	0.00000	4294.84500
6.17091	0.00000	4294.84500
6.17473	0.00000	4294.84500
6.17856	0.00000	4282.67000
6.18239	0.00000	4282.67000
6.18623	0.00000	4282.67000
6.19007	0.00000	4282.67000
6.19390	0.00000	4282.67000
6.19773	0.00000	4288.75800
6.20157	0.00000	4288.75800
6.20539	0.00000	4288.75800
6.20922	0.00000	4288.75800
6.21305	0.00000	4288.75800
6.21688	0.00000	4288.75800
6.22070	0.00000	4297.88900
6.22453	0.00000	4297.88900
6.22836	0.00000	4297.88900
6.23220	0.00000	4297.88900
6.23604	0.00000	4297.88900
6.23990	0.00000	4316.78900
6.24374	0.00000	4316.78900
6.24758	0.00000	4316.78900
6.25142	0.00000	4316.78900
6.25525	0.00000	4316.78900
6.25911	0.00000	4313.72500
6.26296	0.00000	4313.72500
6.26680	0.00000	4313.72500
6.27067	0.00000	4313.72500
6.27450	0.00000	4313.72500
6.27833	0.00000	4316.78900
6.28218	0.00000	4316.78900
6.28603	0.00000	4316.78900
6.28987	0.00000	4316.78900
6.29370	0.00000	4316.78900
6.29752	0.00000	4316.78900
6.30135	0.00000	4294.84500
6.30519	0.00000	4294.84500
6.30903	0.00000	4294.84500
6.31285	0.00000	4294.84500
6.31668	0.00000	4294.84500
6.32052	0.00000	4310.66100
6.32435	0.00000	4310.66100
6.32817	0.00000	4310.66100
6.33201	0.00000	4310.66100
6.33584	0.00000	4310.66100
6.33968	0.00000	4291.80200
6.34352	0.00000	4291.80200
6.34738	0.00000	4291.80200
6.35122	0.00000	4291.80200
6.35506	0.00000	4291.80200
6.35890	0.00000	4316.78900
6.36273	0.00000	4316.78900
6.36656	0.00000	4316.78900
6.37040	0.00000	4316.78900
6.37418	0.00000	4316.78900
6.37802	0.00000	4316.78900
6.38185	0.00000	4303.97700
6.38568	0.00000	4303.97700
6.38951	0.00000	4303.97700
6.39335	0.00000	4303.97700
6.39719	0.00000	4303.97700
6.40103	0.00000	4291.80200
6.40485	0.00000	4291.80200
6.40868	0.00000	4291.80200
6.41251	0.00000	4291.80200
6.41635	0.00000	4291.80200
6.42019	0.00000	4310.66100
6.42402	0.00000	4310.66100
6.42786	0.00000	4310.66100
6.43169	0.00000	4310.66100
6.43552	0.00000	4310.66100
6.43935	0.00000	4297.88900
6.44319	0.00000	4297.88900
6.44703	0.00000	4297.88900
6.45085	0.00000	4297.88900
6.45468	0.00000	4297.88900
6.45851	0.00000	4297.88900
6.46234	0.00000	4307.02100
6.46617	0.00000	4307.02100
6.47001	0.00000	4307.02100
6.47383	0.00000	4307.02100
6.47766	0.00000	4307.02100
6.48149	0.00000	4303.97700
6.48533	0.00000	4303.97700
6.48916	0.00000	4303.97700
6.49299	0.00000	4303.97700
6.49683	0.00000	4303.97700
6.50066	0.00000	4313.72500
6.50449	0.00000	4313.72500
6.50833	0.00000	4313.72500
6.51216	0.00000	4313.72500
6.51599	0.00000	4313.72500
6.51982	0.00000	4291.80200
6.52367	0.00000	4291.80200
6.52749	0.00000	4291.80200
6.53131	0.00000	4291.80200
6.53515	0.00000	4291.80200
6.53899	0.00000	4291.80200
6.54281	0.00000	4316.15300
6.54664	0.00000	4316.15300
6.55047	0.00000	4316.15300
6.55431	0.00000	4316.15300
6.55814	0.00000	4316.15300
6.56197	0.00000	4291.80200
6.56581	0.00000	4291.80200
6.56964	0.00000	4291.80200
6.57348	0.00000	4291.80200
6.57732	0.00000	4291.80200
6.58115	0.00000	4288.75800
6.58498	0.00000	4288.75800
6.58882	0.00000	4288.75800
6.59265	0.00000	4288.75800
6.59649	0.00000	4288.75800
6.60032	0.00000	4285.71400
6.60415	0.00000	4285.71400
6.60798	0.00000	4285.71400
6.61182	0.00000	4285.71400
6.61566	0.00000	4285.71400
6.61950	0.00000	4285.71400
6.62332	0.00000	4313.10900
6.62715	0.00000	4313.10900
6.63098	0.00000	4313.10900
6.63481	0.00000	4313.10900
6.63865	0.00000	4313.10900
6.64249	0.00000	4288.75800
6.64632	0.00000	4288.75800
6.65015	0.00000	4288.75800
6.65399	0.00000	4288.75800
6.65782	0.00000	4288.75800
6.66166	0.00000	4294.84500
6.66550	0.00000	4294.84500
6.66933	0.00000	4294.84500
6.67316	0.00000	4294.84500
6.67703	0.00000	4294.84500
6.68088	0.00000	4297.88900
6.68471	0.00000	4297.88900
6.68855	0.00000	4297.88900
6.69238	0.00000	4297.88900
6.69622	0.00000	4297.88900
6.70005	0.00000	4297.88900
6.70388	0.00000	4285.28200
6.70771	0.00000	4285.28200
6.71154	0.00000	4285.28200
6.71537	0.00000	4285.28200
6.71921	0.00000	4285.28200
6.72305	0.00000	4303.97700
6.72688	0.00000	4303.97700
6.73072	0.00000	4303.97700
6.73457	0.00000	4303.97700
6.73840	0.00000	4303.97700
6.74223	0.00000	4313.72500
6.74607	0.00000	4313.72500
6.74990	0.00000	4313.72500
6.75373	0.00000	4313.72500
6.75756	0.00000	4313.72500
6.76139	0.00000	4303.97700
6.76524	0.00000	4303.97700
6.76907	0.00000	4303.97700
6.77291	0.00000	4303.97700
6.77676	0.00000	4303.97700
6.78061	0.00000	4303.97700
6.78444	0.00000	4303.97700
6.78827	0.00000	4303.97700
6.79210	0.00000	4303.97700
6.79596	0.00000	4303.97700
6.79979	0.00000	4303.97700
6.80364	0.00000	4310.66100
6.80748	0.00000	4310.66100
6.81131	0.00000	4310.66100
6.81515	0.00000	4310.66100
6.81898	0.00000	4310.66100
6.82282	0.00000	4322.91600
6.82665	0.00000	4322.91600
6.83048	0.00000	4322.91600
6.83431	0.00000	4322.91600
6.83815	0.00000	4322.91600
6.84199	0.00000	4319.85200
6.84582	0.00000	4319.85200
6.84966	0.00000	4319.85200
6.85350	0.00000	4319.85200
6.85733	0.00000	4319.85200
6.86116	0.00000	4319.85200
6.86500	0.00000	4310.06500
6.86884	0.00000	4310.06500
6.87267	0.00000	4310.06500
6.87651	0.00000	4310.06500
6.88035	0.00000	4310.06500
6.88419	0.00000	4310.66100
6.88806	0.00000	4310.66100
6.89190	0.00000	4310.66100
6.89573	0.00000	4310.66100
6.89957	0.00000	4310.66100
6.90340	0.00000	4297.88900
6.90723	0.00000	4297.88900
6.91106	0.00000	4297.88900
6.91489	0.00000	4297.88900
6.91873	0.00000	4297.88900
6.92256	0.00000	4285.71400
6.92641	0.00000	4285.71400
6.93024	0.00000	4285.71400
6.93407	0.00000	4285.71400
6.93790	0.00000	4285.71400
6.94174	0.00000	4285.71400
6.94556	0.00000	4300.93300
6.94941	0.00000	4300.93300
6.95326	0.00000	4300.93300
6.95712	0.00000	4300.93300
6.96096	0.00000	4300.93300
6.96480	0.00000	4325.98000
6.96863	0.00000	4325.98000
6.97246	0.00000	4325.98000
6.97630	0.00000	4325.98000
6.98015	0.00000	4325.98000
6.98397	0.00000	4303.97700
6.98781	0.00000	4303.97700
6.99165	0.00000	4303.97700
6.99549	0.00000	4303.97700
6.99932	0.00000	4303.97700
7.00314	0.00000	4297.88900
7.00698	0.00000	4297.88900
7.01081	0.00000	4297.88900
7.01465	0.00000	4297.88900
7.01849	0.00000	4297.88900
7.02233	0.00000	4297.88900
7.02617	0.00000	4282.25800
7.03001	0.00000	4282.25800
7.03385	0.00000	4282.25800
7.03770	0.00000	4282.25800
7.04153	0.00000	4282.25800
7.04536	0.00000	4282.67000
7.04919	0.00000	4282.67000
7.05303	0.00000	4282.67000
7.05687	0.00000	4282.67000
7.06075	0.00000	4282.67000
7.06466	0.00000	4300.93300
7.06851	0.00000	4300.93300
7.07235	0.00000	4300.93300
7.07619	0.00000	4300.93300
7.08002	0.00000	4300.93300
7.08385	0.00000	4294.84500
7.08770	0.00000	4294.84500
7.09154	0.00000	4294.84500
7.09537	0.00000	4294.84500
7.09921	0.00000	4294.84500
7.10304	0.00000	4316.78900
7.10686	0.00000	4316.78900
7.11069	0.00000	4316.78900
7.11452	0.00000	4316.78900
7.11836	0.00000	4316.78900
7.12218	0.00000	4316.78900
7.12601	0.00000	4303.97700
7.12987	0.00000	4303.97700
7.13371	0.00000	4303.97700
7.13754	0.00000	4303.97700
7.14138	0.00000	4303.97700
7.14522	0.00000	4294.84500
7.14905	0.00000	4294.84500
7.15289	0.00000	4294.84500
7.15673	0.00000	4294.84500
7.16057	0.00000	4294.84500
7.16440	0.00000	4316.78900
7.16824	0.00000	4316.78900
7.17207	0.00000	4316.78900
7.17590	0.00000	4316.78900
7.17974	0.00000	4316.78900
7.18357	0.00000	4294.84500
7.18740	0.00000	4294.84500
7.19124	0.00000	4294.84500
7.19507	0.00000	4294.84500
7.19891	0.00000	4294.84500
7.20275	0.00000	4294.84500
7.20658	0.00000	4307.02100
7.21042	0.00000	4307.02100
7.21426	0.00000	4307.02100
7.21808	0.00000	4307.02100
7.22192	0.00000	4307.02100
7.22575	0.00000	4316.78900
7.22959	0.00000	4316.78900
7.23343	0.00000	4316.78900
7.23726	0.00000	4316.78900
7.24110	0.00000	4316.78900
7.24493	0.00000	4325.98000
7.24876	0.00000	4325.98000
7.25259	0.00000	4325.98000
7.25642	0.00000	4325.98000
7.26026	0.00000	4325.98000
7.26409	0.00000	4294.84500
7.26792	0.00000	4294.84500
7.27175	0.00000	4294.84500
7.27559	0.00000	4294.84500
7.27943	0.00000	4294.84500
7.28327	0.00000	4294.84500
7.28710	0.00000	4294.84500
7.29094	0.00000	4294.84500
7.29478	0.00000	4294.84500
7.29860	0.00000	4294.84500
7.30244	0.00000	4294.84500
7.30627	0.00000	4307.02100
7.31011	0.00000	4307.02100
7.31394	0.00000	4307.02100
7.31777	0.00000	4307.02100
7.32161	0.00000	4307.02100
7.32544	0.00000	4288.75800
7.32927	0.00000	4288.75800
7.33311	0.00000	4288.75800
7.33694	0.00000	4288.75800
7.34079	0.00000	4288.75800
7.34463	0.00000	4288.75800
7.34845	0.00000	4288.75800
7.35229	0.00000	4288.75800
7.35611	0.00000	4288.75800
7.35995	0.00000	4288.75800
7.36378	0.00000	4288.75800
7.36760	0.00000	4325.98000
7.37144	0.00000	4325.98000
7.37527	0.00000	4325.98000
7.37911	0.00000	4325.98000
7.38294	0.00000	4325.98000
7.38676	0.00000	4316.78900
7.39060	0.00000	4316.78900
7.39444	0.00000	4316.78900
7.39828	0.00000	4316.78900
7.40212	0.00000	4316.78900
7.40594	0.00000	4291.80200
7.40978	0.00000	4291.80200
7.41362	0.00000	4291.80200
7.41745	0.00000	4291.80200
7.42128	0.00000	4291.80200
7.42511	0.00000	4291.80200
7.42893	0.00000	4303.97700
7.43277	0.00000	4303.97700
7.43659	0.00000	4303.97700
7.44042	0.00000	4303.97700
7.44425	0.00000	4303.97700
7.44809	0.00000	4297.88900
7.45192	0.00000	4297.88900
7.45576	0.00000	4297.88900
7.45959	0.00000	4297.88900
7.46342	0.00000	4297.88900
7.46725	0.00000	4288.75800
7.47108	0.00000	4288.75800
7.47492	0.00000	4288.75800
7.47875	0.00000	4288.75800
7.48258	0.00000	4288.75800
7.48642	0.00000	4291.80200
7.49026	0.00000	4291.80200
7.49408	0.00000	4291.80200
7.49791	0.00000	4291.80200
7.50174	0.00000	4291.80200
7.50558	0.00000	4291.80200
7.50940	0.00000	4297.88900
7.51324	0.00000	4297.88900
7.51708	0.00000	4297.88900
7.52091	0.00000	4297.88900
7.52474	0.00000	4297.88900
7.52858	0.00000	4294.84500
7.53242	0.00000	4294.84500
7.53625	0.00000	4294.84500
7.54008	0.00000	4294.84500
7.54392	0.00000	4294.84500
7.54775	0.00000	4288.75800
7.55158	0.00000	4288.75800
7.55542	0.00000	4288.75800
7.55925	0.00000	4288.75800
7.56309	0.00000	4288.75800
7.56692	0.00000	4294.84500
7.57077	0.00000	4294.84500
7.57461	0.00000	4294.84500
7.57845	0.00000	4294.84500
7.58228	0.00000	4294.84500
7.58612	0.00000	4294.84500
7.58995	0.00000	4291.80200
7.59379	0.00000	4291.80200
7.59770	0.00000	4291.80200
7.60157	0.00000	4291.80200
7.60541	0.00000	4291.80200
7.60926	0.00000	4319.85200
7.61310	0.00000	4319.85200
7.61694	0.00000	4319.85200
7.62078	0.00000	4319.85200
7.62461	0.00000	4319.85200
7.62844	0.00000	4313.72500
7.63229	0.00000	4313.72500
7.63612	0.00000	4313.72500
7.63995	0.00000	4313.72500
7.64378	0.00000	4313.72500
7.64761	0.00000	4294.84500
7.65145	0.00000	4294.84500
7.65528	0.00000	4294.84500
7.65912	0.00000	4294.84500
7.66295	0.00000	4294.84500
7.66678	0.00000	4294.84500
7.67061	0.00000	4294.84500
7.67443	0.00000	4294.84500
7.67826	0.00000	4294.84500
7.68209	0.00000	4294.84500
7.68593	0.00000	4294.84500
7.68977	0.00000	4291.80200
7.69360	0.00000	4291.80200
7.69743	0.00000	4291.80200
7.70126	0.00000	4291.80200
7.70510	0.00000	4291.80200
7.70893	0.00000	4297.88900
7.71276	0.00000	4297.88900
7.71660	0.00000	4297.88900
7.72043	0.00000	4297.88900
7.72426	0.00000	4297.88900
7.72810	0.00000	4304.53400
7.73193	0.00000	4304.53400
7.73576	0.00000	4304.53400
7.73960	0.00000	4304.53400
7.74343	0.00000	4304.53400
7.74727	0.00000	4304.53400
7.75110	0.00000	4304.53400
7.75492	0.00000	4304.53400
7.75875	0.00000	4304.53400
7.76258	0.00000	4304.53400
7.76641	0.00000	4304.53400
7.77024	0.00000	4294.84500
7.77406	0.00000	4294.84500
7.77788	0.00000	4294.84500
7.78171	0.00000	4294.84500
7.78555	0.00000	4294.84500
7.78937	0.00000	4288.75800
7.79320	0.00000	4288.75800
7.79704	0.00000	4288.75800
7.80087	0.00000	4288.75800
7.80471	0.00000	4288.75800
7.80854	0.00000	4297.88900
7.81237	0.00000	4297.88900
7.81619	0.00000	4297.88900
7.82003	0.00000	4297.88900
7.82385	0.00000	4297.88900
7.82769	0.00000	4288.75800
7.83151	0.00000	4288.75800
7.83535	0.00000	4288.75800
7.83917	0.00000	4288.75800
7.84300	0.00000	4288.75800
7.84682	0.00000	4288.75800
7.85065	0.00000	4288.75800
7.85449	0.00000	4288.75800
7.85832	0.00000	4288.75800
7.86214	0.00000	4288.75800
7.86598	0.00000	4288.75800
7.86981	0.00000	4276.58300
7.87363	0.00000	4276.58300
7.87747	0.00000	4276.58300
7.88130	0.00000	4276.58300
7.88513	0.00000	4276.58300
7.88896	0.00000	4310.66100
7.89279	0.00000	4310.66100
7.89663	0.00000	4310.66100
7.90046	0.00000	4310.66100
7.90429	0.00000	4310.66100
7.90813	0.00000	4301.47000
7.91197	0.00000	4301.47000
7.91580	0.00000	4301.47000
7.91963	0.00000	4301.47000
7.92347	0.00000	4301.47000
7.92730	0.00000	4301.47000
7.93114	0.00000	4294.84500
7.93498	0.00000	4294.84500
7.93881	0.00000	4294.84500
7.94263	0.00000	4294.84500
7.94647	0.00000	4294.84500
7.95029	0.00000	4291.80200
7.95412	0.00000	4291.80200
7.95795	0.00000	4291.80200
7.96178	0.00000	4291.80200
7.96561	0.00000	4291.80200
7.96944	0.00000	4291.80200
7.97327	0.00000	4291.80200
7.97710	0.00000	4291.80200
7.98093	0.00000	4291.80200
7.98476	0.00000	4291.80200
7.98860	0.00000	4288.75800
7.99247	0.00000	4288.75800
7.99632	0.00000	4288.75800
8.00016	0.00000	4288.75800
8.00400	0.00000	4288.75800
8.00783	0.00000	4288.75800
8.01168	0.00000	4288.75800
8.01552	0.00000	4288.75800
8.01935	0.00000	4288.75800
8.02318	0.00000	4288.75800
8.02700	0.00000	4288.75800
8.03084	0.00000	4285.71400
8.03467	0.00000	4285.71400
8.03850	0.00000	4285.71400
8.04233	0.00000	4285.71400
8.04617	0.00000	4285.71400
8.05001	0.00000	4282.67000
8.05384	0.00000	4282.67000
8.05767	0.00000	4282.67000
8.06151	0.00000	4282.67000
8.06534	0.00000	4282.67000
8.06916	0.00000	4282.67000
8.07300	0.00000	4282.67000
8.07683	0.00000	4282.67000
8.08066	0.00000	4282.67000
8.08449	0.00000	4282.67000
8.08832	0.00000	4282.67000
8.09216	0.00000	4276.58300
8.09599	0.00000	4276.58300
8.09984	0.00000	4276.58300
8.10368	0.00000	4276.58300
8.10753	0.00000	4276.58300
8.11137	0.00000	4291.80200
8.11520	0.00000	4291.80200
8.11904	0.00000	4291.80200
8.12287	0.00000	4291.80200
8.12669	0.00000	4291.80200
8.13053	0.00000	4285.71400
8.13437	0.00000	4285.71400
8.13818	0.00000	4285.71400
8.14202	0.00000	4285.71400
8.14584	0.00000	4285.71400
8.14968	0.00000	4285.71400
8.15352	0.00000	4285.71400
8.15736	0.00000	4285.71400
8.16120	0.00000	4285.71400
8.16503	0.00000	4285.71400
8.16886	0.00000	4285.71400
8.17269	0.00000	4300.93300
8.17651	0.00000	4300.93300
8.18034	0.00000	4300.93300
8.18417	0.00000	4300.93300
8.18805	0.00000	4300.93300
8.19189	0.00000	4288.75800
8.19573	0.00000	4288.75800
8.19957	0.00000	4288.75800
8.20340	0.00000	4288.75800
8.20723	0.00000	4288.75800
8.21107	0.00000	4294.84500
8.21491	0.00000	4294.84500
8.21875	0.00000	4294.84500
8.22257	0.00000	4294.84500
8.22640	0.00000	4294.84500
8.23023	0.00000	4282.67000
8.23406	0.00000	4282.67000
8.23789	0.00000	4282.67000
8.24172	0.00000	4282.67000
8.24555	0.00000	4282.67000
8.24938	0.00000	4282.67000
8.25321	0.00000	4273.18500
8.25705	0.00000	4273.18500
8.26088	0.00000	4273.18500
8.26471	0.00000	4273.18500
8.26855	0.00000	4273.18500
8.27238	0.00000	4285.71400
8.27621	0.00000	4285.71400
8.28005	0.00000	4285.71400
8.28387	0.00000	4285.71400
8.28770	0.00000	4285.71400
8.29154	0.00000	4288.75800
8.29536	0.00000	4288.75800
8.29919	0.00000	4288.75800
8.30302	0.00000	4288.75800
8.30685	0.00000	4288.75800
8.31068	0.00000	4291.80200
8.31454	0.00000	4291.80200
8.31837	0.00000	4291.80200
8.32218	0.00000	4291.80200
8.32601	0.00000	4291.80200
8.32985	0.00000	4291.80200
8.33368	0.00000	4294.84500
8.33750	0.00000	4294.84500
8.34133	0.00000	4294.84500
8.34516	0.00000	4294.84500
8.34899	0.00000	4294.84500
8.35282	0.00000	4304.53400
8.35667	0.00000	4304.53400
8.36050	0.00000	4304.53400
8.36433	0.00000	4304.53400
8.36817	0.00000	4304.53400
8.37200	0.00000	4304.53400
8.37583	0.00000	4304.53400
8.37966	0.00000	4304.53400
8.38349	0.00000	4304.53400
8.38732	0.00000	4304.53400
8.39115	0.00000	4291.80200
8.39498	0.00000	4291.80200
8.39881	0.00000	4291.80200
8.40264	0.00000	4291.80200
8.40648	0.00000	4291.80200
8.41032	0.00000	4291.80200
8.41415	0.00000	4288.75800
8.41800	0.00000	4288.75800
8.42182	0.00000	4288.75800
8.42565	0.00000	4288.75800
8.42949	0.00000	4288.75800
8.43332	0.00000	4279.62700
8.43715	0.00000	4279.62700
8.44098	0.00000	4279.62700
8.44481	0.00000	4279.62700
8.44864	0.00000	4279.62700
8.45247	0.00000	4285.71400
8.45631	0.00000	4285.71400
8.46014	0.00000	4285.71400
8.46398	0.00000	4285.71400
8.46781	0.00000	4285.71400
8.47164	0.00000	4307.59800
8.47549	0.00000	4307.59800
8.47932	0.00000	4307.59800
8.48315	0.00000	4307.59800
8.48699	0.00000	4307.59800
8.49081	0.00000	4307.59800
8.49465	0.00000	4303.97700
8.49848	0.00000	4303.97700
8.50231	0.00000	4303.97700
8.50614	0.00000	4303.97700
8.50997	0.00000	4303.97700
8.51380	0.00000	4301.47000
8.51764	0.00000	4301.47000
8.52147	0.00000	4301.47000
8.52530	0.00000	4301.47000
8.52913	0.00000	4301.47000
8.53296	0.00000	4288.75800
8.53679	0.00000	4288.75800
8.54062	0.00000	4288.75800
8.54445	0.00000	4288.75800
8.54830	0.00000	4288.75800
8.55213	0.00000	4279.62700
8.55598	0.00000	4279.62700
8.55980	0.00000	4279.62700
8.56363	0.00000	4279.62700
8.56747	0.00000	4279.62700
8.57130	0.00000	4279.62700
8.57513	0.00000	4276.20900
8.57896	0.00000	4276.20900
8.58279	0.00000	4276.20900
8.58663	0.00000	4276.20900
8.59045	0.00000	4276.20900
8.59429	0.00000	4285.71400
8.59812	0.00000	4285.71400
8.60197	0.00000	4285.71400
8.60579	0.00000	4285.71400
8.60963	0.00000	4285.71400
8.61346	0.00000	4276.58300
8.61729	0.00000	4276.58300
8.62112	0.00000	4276.58300
8.62495	0.00000	4276.58300
8.62879	0.00000	4276.58300
8.63261	0.00000	4307.59800
8.63645	0.00000	4307.59800
8.64028	0.00000	4307.59800
8.64411	0.00000	4307.59800
8.64794	0.00000	4307.59800
8.65177	0.00000	4307.59800
8.65561	0.00000	4294.84500
8.65944	0.00000	4294.84500
8.66327	0.00000	4294.84500
8.66710	0.00000	4294.84500
8.67093	0.00000	4294.84500
8.67478	0.00000	4282.67000
8.67861	0.00000	4282.67000
8.68244	0.00000	4282.67000
8.68627	0.00000	4282.67000
8.69010	0.00000	4282.67000
8.69393	0.00000	4282.67000
8.69777	0.00000	4282.67000
8.70160	0.00000	4282.67000
8.70543	0.00000	4282.67000
8.70927	0.00000	4282.67000
8.71311	0.00000	4288.75800
8.71695	0.00000	4288.75800
8.72078	0.00000	4288.75800
8.72462	0.00000	4288.75800
8.72845	0.00000	4288.75800
8.73228	0.00000	4288.75800
8.73611	0.00000	4282.25800
8.73994	0.00000	4282.25800
8.74379	0.00000	4282.25800
8.74762	0.00000	4282.25800
8.75145	0.00000	4282.25800
8.75528	0.00000	4282.67000
8.75911	0.00000	4282.67000
8.76295	0.00000	4282.67000
8.76678	0.00000	4282.67000
8.77062	0.00000	4282.67000
8.77445	0.00000	4279.62700
8.77829	0.00000	4279.62700
8.78212	0.00000	4279.62700
8.78595	0.00000	4279.62700
8.78978	0.00000	4279.62700
8.79361	0.00000	4285.71400
8.79745	0.00000	4285.71400
8.80127	0.00000	4285.71400
8.80511	0.00000	4285.71400
8.80894	0.00000	4285.71400
8.81278	0.00000	4285.71400
8.81661	0.00000	4273.18500
8.82044	0.00000	4273.18500
8.82428	0.00000	4273.18500
8.82812	0.00000	4273.18500
8.83196	0.00000	4273.18500
8.83580	0.00000	4307.59800
8.83962	0.00000	4307.59800
8.84345	0.00000	4307.59800
8.84729	0.00000	4307.59800
8.85112	0.00000	4307.59800
8.85496	0.00000	4298.40600
8.85879	0.00000	4298.40600
8.86262	0.00000	4298.40600
8.86645	0.00000	4298.40600
8.87028	0.00000	4298.40600
8.87412	0.00000	4316.78900
8.87796	0.00000	4316.78900
8.88179	0.00000	4316.78900
8.88562	0.00000	4316.78900
8.88945	0.00000	4316.78900
8.89328	0.00000	4316.78900
8.89711	0.00000	4285.28200
8.90095	0.00000	4285.28200
8.90479	0.00000	4285.28200
8.90862	0.00000	4285.28200
8.91246	0.00000	4285.28200
8.91629	0.00000	4273.53900
8.92012	0.00000	4273.53900
8.92395	0.00000	4273.53900
8.92778	0.00000	4273.53900
8.93161	0.00000	4273.53900
8.93544	0.00000	4288.75800
8.93927	0.00000	4288.75800
8.94310	0.00000	4288.75800
8.94694	0.00000	4288.75800
8.95076	0.00000	4288.75800
8.95459	0.00000	4282.67000
8.95844	0.00000	4282.67000
8.96227	0.00000	4282.67000
8.96611	0.00000	4282.67000
8.96994	0.00000	4282.67000
8.97378	0.00000	4282.67000
8.97760	0.00000	4288.30600
8.98143	0.00000	4288.30600
8.98526	0.00000	4288.30600
8.98910	0.00000	4288.30600
8.99297	0.00000	4288.30600
8.99681	0.00000	4291.80200
9.00067	0.00000	4291.80200
9.00450	0.00000	4291.80200
9.00834	0.00000	4291.80200
9.01217	0.00000	4291.80200
9.01600	0.00000	4264.40700
9.01985	0.00000	4264.40700
9.02368	0.00000	4264.40700
9.02751	0.00000	4264.40700
9.03134	0.00000	4264.40700
9.03517	0.00000	4307.59800
9.03901	0.00000	4307.59800
9.04284	0.00000	4307.59800
9.04667	0.00000	4307.59800
9.05050	0.00000	4307.59800
9.05433	0.00000	4307.59800
9.05816	0.00000	4310.06500
9.06200	0.00000	4310.06500
9.06583	0.00000	4310.06500
9.06966	0.00000	4310.06500
9.07349	0.00000	4310.06500
9.07732	0.00000	4291.80200
9.08115	0.00000	4291.80200
9.08498	0.00000	4291.80200
9.08881	0.00000	4291.80200
9.09264	0.00000	4291.80200
9.09646	0.00000	4313.72500
9.10029	0.00000	4313.72500
9.10412	0.00000	4313.72500
9.10795	0.00000	4313.72500
9.11178	0.00000	4313.72500
9.11561	0.00000	4285.71400
9.11944	0.00000	4285.71400
9.12327	0.00000	4285.71400
9.12710	0.00000	4285.71400
9.13093	0.00000	4285.71400
9.13475	0.00000	4285.71400
9.13858	0.00000	4307.02100
9.14241	0.00000	4307.02100
9.14625	0.00000	4307.02100
9.15009	0.00000	4307.02100
9.15392	0.00000	4307.02100
9.15775	0.00000	4313.72500
9.16158	0.00000	4313.72500
9.16541	0.00000	4313.72500
9.16926	0.00000	4313.72500
9.17310	0.00000	4313.72500
9.17693	0.00000	4307.59800
9.18078	0.00000	4307.59800
9.18461	0.00000	4307.59800
9.18845	0.00000	4307.59800
9.19229	0.00000	4307.59800
9.19612	0.00000	4316.78900
9.19996	0.00000	4316.78900
9.20380	0.00000	4316.78900
9.20764	0.00000	4316.78900
9.21148	0.00000	4316.78900
9.21530	0.00000	4316.78900
9.21913	0.00000	4300.93300
9.22297	0.00000	4300.93300
9.22680	0.00000	4300.93300
9.23063	0.00000	4300.93300
9.23445	0.00000	4300.93300
9.23830	0.00000	4282.67000
9.24213	0.00000	4282.67000
9.24596	0.00000	4282.67000
9.24979	0.00000	4282.67000
9.25362	0.00000	4282.67000
9.25745	0.00000	4282.67000
9.26127	0.00000	4282.67000
9.26510	0.00000	4282.67000
9.26893	0.00000	4282.67000
9.27276	0.00000	4282.67000
9.27660	0.00000	4288.75800
9.28043	0.00000	4288.75800
9.28426	0.00000	4288.75800
9.28808	0.00000	4288.75800
9.29191	0.00000	4288.75800
9.29574	0.00000	4288.75800
9.29957	0.00000	4291.33000
9.30340	0.00000	4291.33000
9.30725	0.00000	4291.33000
9.31108	0.00000	4291.33000
9.31490	0.00000	4291.33000
9.31873	0.00000	4279.62700
9.32256	0.00000	4279.62700
9.32639	0.00000	4279.62700
9.33018	0.00000	4279.62700
9.33401	0.00000	4279.62700
9.33786	0.00000	4276.58300
9.34168	0.00000	4276.58300
9.34551	0.00000	4276.58300
9.34934	0.00000	4276.58300
9.35317	0.00000	4276.58300
9.35699	0.00000	4294.84500
9.36085	0.00000	4294.84500
9.36468	0.00000	4294.84500
9.36850	0.00000	4294.84500
9.37233	0.00000	4294.84500
9.37616	0.00000	4294.84500
9.37999	0.00000	4285.28200
9.38382	0.00000	4285.28200
9.38765	0.00000	4285.28200
9.39148	0.00000	4285.28200
9.39532	0.00000	4285.28200
9.39915	0.00000	4279.62700
9.40298	0.00000	4279.62700
9.40683	0.00000	4279.62700
9.41067	0.00000	4279.62700
9.41450	0.00000	4279.62700
9.41834	0.00000	4279.62700
9.42217	0.00000	4279.62700
9.42601	0.00000	4279.62700
9.42985	0.00000	4279.62700
9.43369	0.00000	4279.62700
9.43752	0.00000	4294.84500
9.44137	0.00000	4294.84500
9.44520	0.00000	4294.84500
9.44903	0.00000	4294.84500
9.45285	0.00000	4294.84500
9.45668	0.00000	4294.84500
9.46050	0.00000	4288.30600
9.46435	0.00000	4288.30600
9.46817	0.00000	4288.30600
9.47202	0.00000	4288.30600
9.47585	0.00000	4288.30600
9.47967	0.00000	4276.58300
9.48351	0.00000	4276.58300
9.48734	0.00000	4276.58300
9.49116	0.00000	4276.58300
9.49500	0.00000	4276.58300
9.49884	0.00000	4285.71400
9.50268	0.00000	4285.71400
9.50651	0.00000	4285.71400
9.51034	0.00000	4285.71400
9.51417	0.00000	4285.71400
9.51801	0.00000	4285.71400
9.52185	0.00000	4285.71400
9.52569	0.00000	4285.71400
9.52953	0.00000	4285.71400
9.53342	0.00000	4285.71400
9.53728	0.00000	4285.71400
9.54113	0.00000	4291.33000
9.54497	0.00000	4291.33000
9.54881	0.00000	4291.33000
9.55264	0.00000	4291.33000
9.55647	0.00000	4291.33000
9.56033	0.00000	4285.71400
9.56417	0.00000	4285.71400
9.56800	0.00000	4285.71400
9.57185	0.00000	4285.71400
9.57567	0.00000	4285.71400
9.57951	0.00000	4288.75800
9.58335	0.00000	4288.75800
9.58717	0.00000	4288.75800
9.59100	0.00000	4288.75800
9.59484	0.00000	4288.75800
9.59867	0.00000	4291.80200
9.60252	0.00000	4291.80200
9.60635	0.00000	4291.80200
9.61018	0.00000	4291.80200
9.61402	0.00000	4291.80200
9.61786	0.00000	4291.80200
9.62170	0.00000	4282.25800
9.62553	0.00000	4282.25800
9.62937	0.00000	4282.25800
9.63320	0.00000	4282.25800
9.63703	0.00000	4282.25800
9.64086	0.00000	4288.75800
9.64469	0.00000	4288.75800
9.64852	0.00000	4288.75800
9.65236	0.00000	4288.75800
9.65618	0.00000	4288.75800
9.66001	0.00000	4297.88900
9.66385	0.00000	4297.88900
9.66768	0.00000	4297.88900
9.67151	0.00000	4297.88900
9.67535	0.00000	4297.88900
9.67919	0.00000	4291.80200
9.68303	0.00000	4291.80200
9.68688	0.00000	4291.80200
9.69071	0.00000	4291.80200
9.69455	0.00000	4291.80200
9.69838	0.00000	4291.80200
9.70218	0.00000	4291.33000
9.70601	0.00000	4291.33000
9.70985	0.00000	4291.33000
9.71368	0.00000	4291.33000
9.71751	0.00000	4291.33000
9.72134	0.00000	4303.97700
9.72519	0.00000	4303.97700
9.72903	0.00000	4303.97700
9.73286	0.00000	4303.97700
9.73670	0.00000	4303.97700
9.74053	0.00000	4316.78900
9.74436	0.00000	4316.78900
9.74819	0.00000	4316.78900
9.75202	0.00000	4316.78900
9.75585	0.00000	4316.78900
9.75969	0.00000	4307.59800
9.76354	0.00000	4307.59800
9.76736	0.00000	4307.59800
9.77128	0.00000	4307.59800
9.77516	0.00000	4307.59800
9.77903	0.00000	4307.59800
9.78287	0.00000	4307.02100
9.78674	0.00000	4307.02100
9.79058	0.00000	4307.02100
9.79442	0.00000	4307.02100
9.79825	0.00000	4307.02100
9.80209	0.00000	4297.88900
9.80592	0.00000	4297.88900
9.80976	0.00000	4297.88900
9.81360	0.00000	4297.88900
9.81743	0.00000	4297.88900
9.82127	0.00000	4297.88900
9.82509	0.00000	4297.88900
9.82893	0.00000	4297.88900
9.83276	0.00000	4297.88900
9.83660	0.00000	4297.88900
9.84044	0.00000	4303.97700
9.84429	0.00000	4303.97700
9.84812	0.00000	4303.97700
9.85196	0.00000	4303.97700
9.85580	0.00000	4303.97700
9.85964	0.00000	4303.97700
9.86346	0.00000	4297.37900
9.86730	0.00000	4297.37900
9.87113	0.00000	4297.37900
9.87496	0.00000	4297.37900
9.87880	0.00000	4297.37900
9.88264	0.00000	4297.88900
9.88647	0.00000	4297.88900
9.89031	0.00000	4297.88900
9.89413	0.00000	4297.88900
9.89797	0.00000	4297.88900
9.90180	0.00000	4329.04400
9.90564	0.00000	4329.04400
9.90948	0.00000	4329.04400
9.91331	0.00000	4329.04400
9.91715	0.00000	4329.04400
9.92097	0.00000	4300.93300
9.92482	0.00000	4300.93300
9.92866	0.00000	4300.93300
9.93249	0.00000	4300.93300
9.93633	0.00000	4300.93300
9.94015	0.00000	4300.93300
9.94398	0.00000	4297.37900
9.94782	0.00000	4297.37900
9.95164	0.00000	4297.37900
9.95548	0.00000	4297.37900
9.95931	0.00000	4297.37900
9.96315	0.00000	4291.80200
9.96698	0.00000	4291.80200
9.97081	0.00000	4291.80200
9.97464	0.00000	4291.80200
9.97848	0.00000	4291.80200
9.98232	0.00000	4307.02100
9.98615	0.00000	4307.02100
9.99000	0.00000	4307.02100
9.99388	0.00000	4307.02100
9.99773	0.00000	4307.02100
