Time (s)   Thrust (N)   RPM
0.00033	0.00000	5750.00000
0.00421	0.00000	5780.54000
0.00810	0.00000	5780.54000
0.01195	0.00000	5780.54000
0.01581	0.00000	5780.54000
0.01968	0.00000	5780.54000
0.02359	0.00000	5780.54000
0.02744	0.00000	5780.54000
0.03132	0.00000	5646.90400
0.03517	0.00000	5646.90400
0.03905	0.00000	5646.90400
0.04288	0.00000	5646.90400
0.04671	0.00000	5646.90400
0.05054	0.00000	5646.90400
0.05440	0.00000	5173.52000
0.05824	0.00000	5173.52000
0.06206	0.00000	5173.52000
0.06590	0.00000	5173.52000
0.06976	0.00000	5173.52000
0.07360	0.00000	5173.52000
0.07743	0.00000	4824.89200
0.08127	0.00000	4824.89200
0.08510	0.00000	4824.89200
0.08894	0.00000	4824.89200
0.09277	0.00000	4824.89200
0.09660	0.00000	4824.89200
0.10044	0.00000	4546.58700
0.10429	0.00000	4546.58700
0.10811	0.00000	4546.58700
0.11194	0.00000	4546.58700
0.11576	0.00000	4546.58700
0.11963	0.00000	4319.19600
0.12347	0.00000	4319.19600
0.12730	0.00000	4319.19600
0.13113	0.00000	4319.19600
0.13498	0.00000	4319.19600
0.13883	0.00000	4098.39500
0.14267	0.00000	4098.39500
0.14649	0.00000	4098.39500
0.15033	0.00000	4098.39500
0.15419	0.00000	4098.39500
0.15802	0.00000	3927.01000
0.16185	0.00000	3927.01000
0.16568	0.00000	3927.01000
0.16954	0.00000	3927.01000
0.17338	0.00000	3927.01000
0.17721	0.00000	3783.96700
0.18104	0.00000	3783.96700
0.18490	0.00000	3783.96700
0.18875	0.00000	3783.96700
0.19259	0.00000	3631.06300
0.19642	0.00000	3631.06300
0.20025	0.00000	3631.06300
0.20411	0.00000	3631.06300
0.20794	0.00000	3631.06300
0.21177	0.00000	3504.97100
0.21560	0.00000	3504.97100
0.21945	0.00000	3504.97100
0.22328	0.00000	3504.97100
0.22710	0.00000	3398.43700
0.23093	0.00000	3398.43700
0.23476	0.00000	3398.43700
0.23861	0.00000	3398.43700
0.24245	0.00000	3398.43700
0.24628	0.00000	3292.41000
0.25011	0.00000	3292.41000
0.25397	0.00000	3292.41000
0.25780	0.00000	3292.41000
0.26163	0.00000	3194.30400
0.26547	0.00000	3194.30400
0.26933	0.00000	3194.30400
0.27316	0.00000	3194.30400
0.27699	0.00000	3079.26800
0.28083	0.00000	3079.26800
0.28466	0.00000	3079.26800
0.28853	0.00000	3079.26800
0.29236	0.00000	3010.07200
0.29620	0.00000	3010.07200
0.30003	0.00000	3010.07200
0.30390	0.00000	3010.07200
0.30773	0.00000	2954.30700
0.31155	0.00000	2954.30700
0.31538	0.00000	2954.30700
0.31924	0.00000	2954.30700
0.32307	0.00000	2876.05900
0.32690	0.00000	2876.05900
0.33074	0.00000	2876.05900
0.33457	0.00000	2876.05900
0.33843	0.00000	2804.48700
0.34228	0.00000	2804.48700
0.34611	0.00000	2804.48700
0.34994	0.00000	2804.48700
0.35381	0.00000	2735.72200
0.35764	0.00000	2735.72200
0.36147	0.00000	2735.72200
0.36530	0.00000	2735.72200
0.36916	0.00000	2686.14100
0.37301	0.00000	2686.14100
0.37683	0.00000	2686.14100
0.38066	0.00000	2686.14100
0.38449	0.00000	2631.57800
0.38835	0.00000	2631.57800
0.39218	0.00000	2631.57800
0.39601	0.00000	2631.57800
0.39985	0.00000	2565.78900
0.40370	0.00000	2565.78900
0.40754	0.00000	2565.78900
0.41137	0.00000	2565.78900
0.41520	0.00000	2544.64200
0.41906	0.00000	2544.64200
0.42290	0.00000	2544.64200
0.42673	0.00000	2544.64200
0.43055	0.00000	2486.04900
0.43439	0.00000	2486.04900
0.43824	0.00000	2486.04900
0.44207	0.00000	2463.06800
0.44591	0.00000	2463.06800
0.44973	0.00000	2463.06800
0.45360	0.00000	2463.06800
0.45743	0.00000	2411.93100
0.46126	0.00000	2411.93100
0.46508	0.00000	2411.93100
0.46894	0.00000	2411.93100
0.47277	0.00000	2373.57900
0.47661	0.00000	2373.57900
0.48044	0.00000	2373.57900
0.48427	0.00000	2373.57900
0.48811	0.00000	2352.35000
0.49194	0.00000	2352.35000
0.49577	0.00000	2352.35000
0.49960	0.00000	2339.36900
0.50345	0.00000	2339.36900
0.50729	0.00000	2339.36900
0.51111	0.00000	2339.36900
0.51494	0.00000	2278.64500
0.51880	0.00000	2278.64500
0.52263	0.00000	2278.64500
0.52646	0.00000	2278.64500
0.53028	0.00000	2252.60400
0.53411	0.00000	2252.60400
0.53796	0.00000	2252.60400
0.54180	0.00000	2252.60400
0.54562	0.00000	2229.84800
0.54945	0.00000	2229.84800
0.55330	0.00000	2229.84800
0.55714	0.00000	2206.66200
0.56097	0.00000	2206.66200
0.56480	0.00000	2206.66200
0.56863	0.00000	2206.66200
0.57248	0.00000	2172.89700
0.57630	0.00000	2172.89700
0.58010	0.00000	2172.89700
0.58394	0.00000	2172.89700
0.58779	0.00000	2153.59700
0.59163	0.00000	2153.59700
0.59545	0.00000	2153.59700
0.59929	0.00000	2122.64100
0.60314	0.00000	2122.64100
0.60698	0.00000	2122.64100
0.61081	0.00000	2122.64100
0.61465	0.00000	2125.00000
0.61848	0.00000	2125.00000
0.62234	0.00000	2125.00000
0.62616	0.00000	2104.86700
0.63000	0.00000	2104.86700
0.63382	0.00000	2104.86700
0.63767	0.00000	2104.86700
0.64151	0.00000	2086.83800
0.64534	0.00000	2086.83800
0.64917	0.00000	2086.83800
0.65302	0.00000	2086.83800
0.65685	0.00000	2068.81000
0.66067	0.00000	2068.81000
0.66450	0.00000	2068.81000
0.66834	0.00000	2057.03800
0.67219	0.00000	2057.03800
0.67602	0.00000	2057.03800
0.67984	0.00000	2057.03800
0.68367	0.00000	2032.75200
0.68753	0.00000	2032.75200
0.69135	0.00000	2032.75200
0.69518	0.00000	2016.08000
0.69901	0.00000	2016.08000
0.70286	0.00000	2016.08000
0.70669	0.00000	2016.08000
0.71052	0.00000	2011.52900
0.71435	0.00000	2011.52900
0.71817	0.00000	2011.52900
0.72202	0.00000	1979.67200
0.72585	0.00000	1979.67200
0.72967	0.00000	1979.67200
0.73351	0.00000	1979.67200
0.73737	0.00000	1966.01900
0.74121	0.00000	1966.01900
0.74503	0.00000	1966.01900
0.74886	0.00000	1966.01900
0.75271	0.00000	1971.50700
0.75654	0.00000	1971.50700
0.76037	0.00000	1971.50700
0.76420	0.00000	1948.52900
0.76803	0.00000	1948.52900
0.77190	0.00000	1948.52900
0.77576	0.00000	1948.52900
0.77959	0.00000	1943.93300
0.78342	0.00000	1943.93300
0.78727	0.00000	1943.93300
0.79109	0.00000	1920.95500
0.79492	0.00000	1920.95500
0.79875	0.00000	1920.95500
0.80261	0.00000	1920.95500
0.80644	0.00000	1906.85600
0.81026	0.00000	1906.85600
0.81408	0.00000	1906.85600
0.81793	0.00000	1893.38200
0.82178	0.00000	1893.38200
0.82561	0.00000	1893.38200
0.82943	0.00000	1893.38200
0.83326	0.00000	1897.97800
0.83712	0.00000	1897.97800
0.84095	0.00000	1897.97800
0.84476	0.00000	1888.92300
0.84859	0.00000	1888.92300
0.85244	0.00000	1888.92300
0.85628	0.00000	1888.92300
0.86010	0.00000	1870.40400
0.86393	0.00000	1870.40400
0.86775	0.00000	1870.40400
0.87160	0.00000	1870.35800
0.87543	0.00000	1870.35800
0.87925	0.00000	1870.35800
0.88307	0.00000	1870.35800
0.88694	0.00000	1852.02200
0.89081	0.00000	1852.02200
0.89465	0.00000	1852.02200
0.89847	0.00000	1847.15300
0.90233	0.00000	1847.15300
0.90616	0.00000	1847.15300
0.90998	0.00000	1847.15300
0.91381	0.00000	1847.15300
0.91763	0.00000	1847.15300
0.92148	0.00000	1847.15300
0.92531	0.00000	1828.58900
0.92913	0.00000	1828.58900
0.93295	0.00000	1828.58900
0.93680	0.00000	1828.58900
0.94063	0.00000	1833.23000
0.94446	0.00000	1833.23000
0.94829	0.00000	1833.23000
0.95210	0.00000	1810.02400
0.95594	0.00000	1810.02400
0.95977	0.00000	1810.02400
0.96359	0.00000	1810.02400
0.96743	0.00000	1819.30700
0.97128	0.00000	1819.30700
0.97511	0.00000	1819.30700
0.97894	0.00000	1814.06200
0.98277	0.00000	1814.06200
0.98663	0.00000	1814.06200
0.99047	0.00000	1814.06200
0.99429	0.00000	1796.10100
0.99812	0.00000	1796.10100
1.00195	0.00000	1796.10100
1.00580	0.00000	1800.00000
1.00962	0.00000	1800.00000
1.01346	0.00000	1800.00000
1.01729	0.00000	1795.31200
1.02114	0.00000	1795.31200
1.02498	0.00000	1795.31200
1.02880	0.00000	1795.31200
1.03264	0.00000	1785.93700
1.03649	0.00000	1785.93700
1.04033	0.00000	1785.93700
1.04416	0.00000	1781.25000
1.04798	0.00000	1781.25000
1.05182	0.00000	1781.25000
1.05567	0.00000	1781.25000
1.05950	0.00000	1768.25400
1.06333	0.00000	1768.25400
1.06717	0.00000	1768.25400
1.07103	0.00000	1776.56200
1.07487	0.00000	1776.56200
1.07871	0.00000	1776.56200
1.08253	0.00000	1776.56200
1.08639	0.00000	1758.97200
1.09023	0.00000	1758.97200
1.09405	0.00000	1758.97200
1.09787	0.00000	1767.18700
1.10172	0.00000	1767.18700
1.10557	0.00000	1767.18700
1.10940	0.00000	1767.18700
1.11322	0.00000	1754.33100
1.11705	0.00000	1754.33100
1.12090	0.00000	1754.33100
1.12473	0.00000	1753.12500
1.12855	0.00000	1753.12500
1.13238	0.00000	1753.12500
1.13623	0.00000	1753.12500
1.14006	0.00000	1745.04900
1.14390	0.00000	1745.04900
1.14773	0.00000	1745.04900
1.15156	0.00000	1743.75000
1.15541	0.00000	1743.75000
1.15924	0.00000	1743.75000
1.16307	0.00000	1739.06200
1.16690	0.00000	1739.06200
1.17076	0.00000	1739.06200
1.17458	0.00000	1739.06200
1.17841	0.00000	1739.06200
1.18223	0.00000	1739.06200
1.18609	0.00000	1739.06200
1.18992	0.00000	1734.37500
1.19374	0.00000	1734.37500
1.19758	0.00000	1734.37500
1.20141	0.00000	1734.37500
1.20526	0.00000	1743.75000
1.20908	0.00000	1743.75000
1.21291	0.00000	1743.75000
1.21673	0.00000	1747.15900
1.22058	0.00000	1747.15900
1.22441	0.00000	1747.15900
1.22823	0.00000	1747.15900
1.23207	0.00000	1721.84400
1.23593	0.00000	1721.84400
1.23977	0.00000	1721.84400
1.24360	0.00000	1742.42400
1.24742	0.00000	1742.42400
1.25125	0.00000	1742.42400
1.25510	0.00000	1742.42400
1.25892	0.00000	1725.00000
1.26275	0.00000	1725.00000
1.26658	0.00000	1725.00000
1.27044	0.00000	1737.68900
1.27427	0.00000	1737.68900
1.27810	0.00000	1737.68900
1.28192	0.00000	1732.95400
1.28578	0.00000	1732.95400
1.28961	0.00000	1732.95400
1.29343	0.00000	1732.95400
1.29725	0.00000	1732.95400
1.30107	0.00000	1732.95400
1.30493	0.00000	1732.95400
1.30876	0.00000	1728.21900
1.31258	0.00000	1728.21900
1.31642	0.00000	1728.21900
1.32027	0.00000	1728.21900
1.32411	0.00000	1720.31200
1.32793	0.00000	1720.31200
1.33175	0.00000	1720.31200
1.33561	0.00000	1706.25000
1.33943	0.00000	1706.25000
1.34325	0.00000	1706.25000
1.34708	0.00000	1706.25000
1.35091	0.00000	1715.62500
1.35477	0.00000	1715.62500
1.35860	0.00000	1715.62500
1.36243	0.00000	1723.48400
1.36626	0.00000	1723.48400
1.37011	0.00000	1723.48400
1.37394	0.00000	1718.75000
1.37776	0.00000	1718.75000
1.38159	0.00000	1718.75000
1.38544	0.00000	1718.75000
1.38928	0.00000	1714.01500
1.39311	0.00000	1714.01500
1.39693	0.00000	1714.01500
1.40075	0.00000	1714.01500
1.40461	0.00000	1714.01500
1.40844	0.00000	1714.01500
1.41226	0.00000	1714.01500
1.41608	0.00000	1710.93700
1.41995	0.00000	1710.93700
1.42380	0.00000	1710.93700
1.42762	0.00000	1714.01500
1.43145	0.00000	1714.01500
1.43528	0.00000	1714.01500
1.43913	0.00000	1714.01500
1.44296	0.00000	1710.93700
1.44679	0.00000	1710.93700
1.45062	0.00000	1710.93700
1.45449	0.00000	1692.18700
1.45831	0.00000	1692.18700
1.46214	0.00000	1692.18700
1.46597	0.00000	1704.54500
1.46983	0.00000	1704.54500
1.47366	0.00000	1704.54500
1.47750	0.00000	1704.54500
1.48132	0.00000	1709.28000
1.48515	0.00000	1709.28000
1.48900	0.00000	1709.28000
1.49282	0.00000	1704.54500
1.49665	0.00000	1704.54500
1.50047	0.00000	1704.54500
1.50432	0.00000	1704.54500
1.50816	0.00000	1696.87500
1.51198	0.00000	1696.87500
1.51581	0.00000	1696.87500
1.51966	0.00000	1704.54500
1.52348	0.00000	1704.54500
1.52732	0.00000	1704.54500
1.53114	0.00000	1704.54500
1.53498	0.00000	1714.01500
1.53884	0.00000	1714.01500
1.54267	0.00000	1714.01500
1.54650	0.00000	1699.81000
1.55033	0.00000	1699.81000
1.55418	0.00000	1699.81000
1.55802	0.00000	1704.54500
1.56184	0.00000	1704.54500
1.56566	0.00000	1704.54500
1.56951	0.00000	1704.54500
1.57334	0.00000	1699.81000
1.57717	0.00000	1699.81000
1.58100	0.00000	1699.81000
1.58482	0.00000	1699.81000
1.58868	0.00000	1699.81000
1.59251	0.00000	1699.81000
1.59633	0.00000	1699.81000
1.60016	0.00000	1709.28000
1.60401	0.00000	1709.28000
1.60785	0.00000	1709.28000
1.61168	0.00000	1712.37200
1.61551	0.00000	1712.37200
1.61937	0.00000	1712.37200
1.62319	0.00000	1712.37200
1.62702	0.00000	1704.54500
1.63085	0.00000	1704.54500
1.63470	0.00000	1704.54500
1.63855	0.00000	1695.07500
1.64238	0.00000	1695.07500
1.64621	0.00000	1695.07500
1.65005	0.00000	1695.07500
1.65390	0.00000	1695.07500
1.65774	0.00000	1695.07500
1.66156	0.00000	1695.07500
1.66540	0.00000	1692.18700
1.66925	0.00000	1692.18700
1.67308	0.00000	1692.18700
1.67690	0.00000	1695.07500
1.68072	0.00000	1695.07500
1.68456	0.00000	1695.07500
1.68842	0.00000	1695.07500
1.69225	0.00000	1687.50000
1.69607	0.00000	1687.50000
1.69990	0.00000	1687.50000
1.70376	0.00000	1695.07500
1.70758	0.00000	1695.07500
1.71141	0.00000	1695.07500
1.71524	0.00000	1695.07500
1.71909	0.00000	1678.12500
1.72292	0.00000	1678.12500
1.72675	0.00000	1678.12500
1.73057	0.00000	1695.07500
1.73444	0.00000	1695.07500
1.73830	0.00000	1695.07500
1.74213	0.00000	1690.34000
1.74596	0.00000	1690.34000
1.74980	0.00000	1690.34000
1.75366	0.00000	1690.34000
1.75749	0.00000	1699.81000
1.76132	0.00000	1699.81000
1.76515	0.00000	1699.81000
1.76900	0.00000	1712.37200
1.77284	0.00000	1712.37200
1.77669	0.00000	1712.37200
1.78052	0.00000	1712.37200
1.78436	0.00000	1695.07500
1.78821	0.00000	1695.07500
1.79204	0.00000	1695.07500
1.79588	0.00000	1707.58900
1.79973	0.00000	1707.58900
1.80359	0.00000	1707.58900
1.80742	0.00000	1690.34000
1.81124	0.00000	1690.34000
1.81508	0.00000	1690.34000
1.81894	0.00000	1690.34000
1.82277	0.00000	1690.34000
1.82660	0.00000	1690.34000
1.83042	0.00000	1690.34000
1.83424	0.00000	1690.34000
1.83809	0.00000	1690.34000
1.84192	0.00000	1690.34000
1.84575	0.00000	1690.34000
1.84958	0.00000	1699.81000
1.85343	0.00000	1699.81000
1.85726	0.00000	1699.81000
1.86109	0.00000	1690.34000
1.86492	0.00000	1690.34000
1.86878	0.00000	1690.34000
1.87261	0.00000	1690.34000
1.87644	0.00000	1695.07500
1.88026	0.00000	1695.07500
1.88409	0.00000	1695.07500
1.88797	0.00000	1702.80600
1.89183	0.00000	1702.80600
1.89566	0.00000	1702.80600
1.89949	0.00000	1685.60600
1.90335	0.00000	1685.60600
1.90718	0.00000	1685.60600
1.91101	0.00000	1685.60600
1.91482	0.00000	1699.81000
1.91867	0.00000	1699.81000
1.92252	0.00000	1699.81000
1.92636	0.00000	1685.60600
1.93018	0.00000	1685.60600
1.93402	0.00000	1685.60600
1.93787	0.00000	1685.60600
1.94170	0.00000	1699.81000
1.94553	0.00000	1699.81000
1.94936	0.00000	1699.81000
1.95321	0.00000	1685.60600
1.95705	0.00000	1685.60600
1.96087	0.00000	1685.60600
1.96471	0.00000	1685.60600
1.96853	0.00000	1685.60600
1.97238	0.00000	1685.60600
1.97621	0.00000	1685.60600
1.98004	0.00000	1678.12500
1.98387	0.00000	1678.12500
1.98772	0.00000	1678.12500
1.99155	0.00000	1685.60600
1.99537	0.00000	1685.60600
1.99921	0.00000	1685.60600
2.00306	0.00000	1685.60600
2.00689	0.00000	1695.07500
2.01071	0.00000	1695.07500
2.01454	0.00000	1695.07500
2.01837	0.00000	1690.34000
2.02221	0.00000	1690.34000
2.02604	0.00000	1690.34000
2.02987	0.00000	1690.34000
2.03369	0.00000	1690.34000
2.03755	0.00000	1690.34000
2.04138	0.00000	1690.34000
2.04520	0.00000	1702.80600
2.04903	0.00000	1702.80600
2.05288	0.00000	1702.80600
2.05671	0.00000	1690.34000
2.06056	0.00000	1690.34000
2.06438	0.00000	1690.34000
2.06821	0.00000	1690.34000
2.07206	0.00000	1682.81200
2.07589	0.00000	1682.81200
2.07972	0.00000	1682.81200
2.08355	0.00000	1685.60600
2.08740	0.00000	1685.60600
2.09123	0.00000	1685.60600
2.09506	0.00000	1685.60600
2.09889	0.00000	1699.81000
2.10274	0.00000	1699.81000
2.10657	0.00000	1699.81000
2.11039	0.00000	1685.60600
2.11422	0.00000	1685.60600
2.11805	0.00000	1685.60600
2.12190	0.00000	1690.34000
2.12573	0.00000	1690.34000
2.12955	0.00000	1690.34000
2.13338	0.00000	1690.34000
2.13724	0.00000	1690.34000
2.14107	0.00000	1690.34000
2.14489	0.00000	1690.34000
2.14872	0.00000	1685.60600
2.15257	0.00000	1685.60600
2.15640	0.00000	1685.60600
2.16023	0.00000	1685.60600
2.16405	0.00000	1682.81200
2.16789	0.00000	1682.81200
2.17174	0.00000	1682.81200
2.17557	0.00000	1690.34000
2.17939	0.00000	1690.34000
2.18323	0.00000	1690.34000
2.18708	0.00000	1690.34000
2.19091	0.00000	1695.07500
2.19473	0.00000	1695.07500
2.19857	0.00000	1695.07500
2.20242	0.00000	1690.34000
2.20626	0.00000	1690.34000
2.21008	0.00000	1690.34000
2.21391	0.00000	1685.60600
2.21774	0.00000	1685.60600
2.22159	0.00000	1685.60600
2.22543	0.00000	1685.60600
2.22926	0.00000	1678.12500
2.23308	0.00000	1678.12500
2.23693	0.00000	1678.12500
2.24076	0.00000	1685.60600
2.24458	0.00000	1685.60600
2.24841	0.00000	1685.60600
2.25227	0.00000	1685.60600
2.25611	0.00000	1678.12500
2.25993	0.00000	1678.12500
2.26375	0.00000	1678.12500
2.26758	0.00000	1685.60600
2.27144	0.00000	1685.60600
2.27527	0.00000	1685.60600
2.27910	0.00000	1690.34000
2.28293	0.00000	1690.34000
2.28679	0.00000	1690.34000
2.29063	0.00000	1690.34000
2.29445	0.00000	1690.34000
2.29828	0.00000	1690.34000
2.30215	0.00000	1690.34000
2.30597	0.00000	1690.34000
2.30982	0.00000	1690.34000
2.31365	0.00000	1690.34000
2.31747	0.00000	1690.34000
2.32133	0.00000	1682.81200
2.32516	0.00000	1682.81200
2.32898	0.00000	1682.81200
2.33280	0.00000	1690.34000
2.33665	0.00000	1690.34000
2.34048	0.00000	1690.34000
2.34430	0.00000	1690.34000
2.34813	0.00000	1678.12500
2.35197	0.00000	1678.12500
2.35580	0.00000	1678.12500
2.35962	0.00000	1685.60600
2.36345	0.00000	1685.60600
2.36727	0.00000	1685.60600
2.37113	0.00000	1685.60600
2.37497	0.00000	1685.60600
2.37879	0.00000	1685.60600
2.38262	0.00000	1685.60600
2.38647	0.00000	1673.43700
2.39030	0.00000	1673.43700
2.39414	0.00000	1673.43700
2.39796	0.00000	1685.60600
2.40179	0.00000	1685.60600
2.40564	0.00000	1685.60600
2.40946	0.00000	1685.60600
2.41329	0.00000	1682.81200
2.41712	0.00000	1682.81200
2.42098	0.00000	1682.81200
2.42481	0.00000	1685.60600
2.42864	0.00000	1685.60600
2.43246	0.00000	1685.60600
2.43631	0.00000	1685.60600
2.44011	0.00000	1695.07500
2.44393	0.00000	1695.07500
2.44775	0.00000	1695.07500
2.45158	0.00000	1685.60600
2.45543	0.00000	1685.60600
2.45926	0.00000	1685.60600
2.46308	0.00000	1680.87100
2.46691	0.00000	1680.87100
2.47076	0.00000	1680.87100
2.47459	0.00000	1680.87100
2.47842	0.00000	1682.81200
2.48225	0.00000	1682.81200
2.48610	0.00000	1682.81200
2.48993	0.00000	1680.87100
2.49375	0.00000	1680.87100
2.49758	0.00000	1680.87100
2.50142	0.00000	1680.87100
2.50527	0.00000	1695.07500
2.50909	0.00000	1695.07500
2.51293	0.00000	1695.07500
2.51676	0.00000	1685.60600
2.52061	0.00000	1685.60600
2.52444	0.00000	1685.60600
2.52826	0.00000	1685.60600
2.53209	0.00000	1685.60600
2.53594	0.00000	1685.60600
2.53977	0.00000	1685.60600
2.54359	0.00000	1685.60600
2.54741	0.00000	1685.60600
2.55124	0.00000	1685.60600
2.55509	0.00000	1690.34000
2.55892	0.00000	1690.34000
2.56275	0.00000	1690.34000
2.56658	0.00000	1690.34000
2.57043	0.00000	1695.07500
2.57425	0.00000	1695.07500
2.57808	0.00000	1695.07500
2.58192	0.00000	1685.60600
2.58578	0.00000	1685.60600
2.58961	0.00000	1685.60600
2.59344	0.00000	1685.60600
2.59726	0.00000	1695.07500
2.60108	0.00000	1695.07500
2.60493	0.00000	1695.07500
2.60875	0.00000	1702.80600
2.61258	0.00000	1702.80600
2.61641	0.00000	1702.80600
2.62026	0.00000	1690.34000
2.62409	0.00000	1690.34000
2.62793	0.00000	1690.34000
2.63175	0.00000	1690.34000
2.63561	0.00000	1690.34000
2.63944	0.00000	1690.34000
2.64327	0.00000	1690.34000
2.64709	0.00000	1685.60600
2.65092	0.00000	1685.60600
2.65478	0.00000	1685.60600
2.65861	0.00000	1685.60600
2.66243	0.00000	1699.81000
2.66627	0.00000	1699.81000
2.67013	0.00000	1699.81000
2.67396	0.00000	1698.02300
2.67779	0.00000	1698.02300
2.68161	0.00000	1698.02300
2.68548	0.00000	1685.60600
2.68931	0.00000	1685.60600
2.69314	0.00000	1685.60600
2.69696	0.00000	1685.60600
2.70079	0.00000	1685.60600
2.70464	0.00000	1685.60600
2.70847	0.00000	1685.60600
2.71230	0.00000	1698.02300
2.71611	0.00000	1698.02300
2.71996	0.00000	1698.02300
2.72379	0.00000	1698.02300
2.72761	0.00000	1699.81000
2.73145	0.00000	1699.81000
2.73530	0.00000	1699.81000
2.73913	0.00000	1685.60600
2.74296	0.00000	1685.60600
2.74678	0.00000	1685.60600
2.75061	0.00000	1685.60600
2.75445	0.00000	1695.07500
2.75828	0.00000	1695.07500
2.76211	0.00000	1695.07500
2.76593	0.00000	1685.60600
2.76980	0.00000	1685.60600
2.77366	0.00000	1685.60600
2.77750	0.00000	1685.60600
2.78132	0.00000	1685.60600
2.78515	0.00000	1685.60600
2.78900	0.00000	1685.60600
2.79283	0.00000	1685.60600
2.79665	0.00000	1685.60600
2.80048	0.00000	1685.60600
2.80433	0.00000	1685.60600
2.80816	0.00000	1685.60600
2.81198	0.00000	1685.60600
2.81581	0.00000	1685.60600
2.81966	0.00000	1678.12500
2.82350	0.00000	1678.12500
2.82733	0.00000	1678.12500
2.83117	0.00000	1685.60600
2.83518	0.00000	1685.60600
2.83909	0.00000	1685.60600
2.84302	0.00000	1685.60600
2.84686	0.00000	1685.60600
2.85070	0.00000	1685.60600
2.85457	0.00000	1685.60600
2.85841	0.00000	1690.34000
2.86224	0.00000	1690.34000
2.86607	0.00000	1690.34000
2.86992	0.00000	1685.60600
2.87376	0.00000	1685.60600
2.87758	0.00000	1685.60600
2.88141	0.00000	1685.60600
2.88524	0.00000	1678.12500
2.88909	0.00000	1678.12500
2.89295	0.00000	1678.12500
2.89679	0.00000	1680.87100
2.90062	0.00000	1680.87100
2.90447	0.00000	1680.87100
2.90832	0.00000	1685.60600
2.91210	0.00000	1685.60600
2.91593	0.00000	1685.60600
2.91979	0.00000	1685.60600
2.92361	0.00000	1680.87100
2.92744	0.00000	1680.87100
2.93128	0.00000	1680.87100
2.93518	0.00000	1685.60600
2.93905	0.00000	1685.60600
2.94290	0.00000	1685.60600
2.94676	0.00000	1685.60600
2.95060	0.00000	1678.12500
2.95445	0.00000	1678.12500
2.95829	0.00000	1678.12500
2.96212	0.00000	1685.60600
2.96596	0.00000	1685.60600
2.96980	0.00000	1685.60600
2.97364	0.00000	1685.60600
2.97746	0.00000	1695.07500
2.98129	0.00000	1695.07500
2.98511	0.00000	1695.07500
2.98896	0.00000	1685.60600
2.99279	0.00000	1685.60600
2.99662	0.00000	1685.60600
3.00044	0.00000	1685.60600
3.00431	0.00000	1685.60600
3.00811	0.00000	1685.60600
3.01194	0.00000	1685.60600
3.01576	0.00000	1678.12500
3.01961	0.00000	1678.12500
3.02345	0.00000	1678.12500
3.02727	0.00000	1685.60600
3.03110	0.00000	1685.60600
3.03492	0.00000	1685.60600
3.03877	0.00000	1685.60600
3.04259	0.00000	1678.12500
3.04642	0.00000	1678.12500
3.05024	0.00000	1678.12500
3.05410	0.00000	1685.60600
3.05793	0.00000	1685.60600
3.06176	0.00000	1685.60600
3.06559	0.00000	1685.60600
3.06944	0.00000	1685.60600
3.07327	0.00000	1685.60600
3.07710	0.00000	1685.60600
3.08091	0.00000	1690.34000
3.08475	0.00000	1690.34000
3.08860	0.00000	1690.34000
3.09242	0.00000	1690.34000
3.09625	0.00000	1690.34000
3.10009	0.00000	1690.34000
3.10395	0.00000	1690.34000
3.10778	0.00000	1682.81200
3.11161	0.00000	1682.81200
3.11543	0.00000	1682.81200
3.11929	0.00000	1685.60600
3.12312	0.00000	1685.60600
3.12694	0.00000	1685.60600
3.13076	0.00000	1685.60600
3.13459	0.00000	1695.07500
3.13844	0.00000	1695.07500
3.14226	0.00000	1695.07500
3.14609	0.00000	1680.87100
3.14992	0.00000	1680.87100
3.15377	0.00000	1680.87100
3.15760	0.00000	1685.60600
3.16143	0.00000	1685.60600
3.16526	0.00000	1685.60600
3.16912	0.00000	1685.60600
3.17296	0.00000	1690.34000
3.17678	0.00000	1690.34000
3.18061	0.00000	1690.34000
3.18443	0.00000	1685.60600
3.18828	0.00000	1685.60600
3.19211	0.00000	1685.60600
3.19593	0.00000	1685.60600
3.19976	0.00000	1699.81000
3.20362	0.00000	1699.81000
3.20745	0.00000	1699.81000
3.21127	0.00000	1680.87100
3.21511	0.00000	1680.87100
3.21896	0.00000	1680.87100
3.22280	0.00000	1680.87100
3.22662	0.00000	1690.34000
3.23045	0.00000	1690.34000
3.23427	0.00000	1690.34000
3.23812	0.00000	1702.80600
3.24195	0.00000	1702.80600
3.24577	0.00000	1702.80600
3.24959	0.00000	1698.02300
3.25345	0.00000	1698.02300
3.25728	0.00000	1698.02300
3.26111	0.00000	1698.02300
3.26493	0.00000	1699.81000
3.26878	0.00000	1699.81000
3.27261	0.00000	1699.81000
3.27644	0.00000	1698.02300
3.28026	0.00000	1698.02300
3.28409	0.00000	1698.02300
3.28796	0.00000	1698.02300
3.29179	0.00000	1695.07500
3.29561	0.00000	1695.07500
3.29943	0.00000	1695.07500
3.30331	0.00000	1690.34000
3.30714	0.00000	1690.34000
3.31097	0.00000	1690.34000
3.31480	0.00000	1685.60600
3.31867	0.00000	1685.60600
3.32250	0.00000	1685.60600
3.32633	0.00000	1685.60600
3.33015	0.00000	1690.34000
3.33398	0.00000	1690.34000
3.33784	0.00000	1690.34000
3.34167	0.00000	1698.02300
3.34550	0.00000	1698.02300
3.34933	0.00000	1698.02300
3.35318	0.00000	1698.02300
3.35701	0.00000	1695.07500
3.36083	0.00000	1695.07500
3.36466	0.00000	1695.07500
3.36848	0.00000	1685.60600
3.37234	0.00000	1685.60600
3.37617	0.00000	1685.60600
3.37999	0.00000	1685.60600
3.38382	0.00000	1695.07500
3.38766	0.00000	1695.07500
3.39150	0.00000	1695.07500
3.39532	0.00000	1685.60600
3.39914	0.00000	1685.60600
3.40299	0.00000	1685.60600
3.40683	0.00000	1702.80600
3.41067	0.00000	1702.80600
3.41449	0.00000	1702.80600
3.41831	0.00000	1702.80600
3.42217	0.00000	1695.07500
3.42600	0.00000	1695.07500
3.42982	0.00000	1695.07500
3.43365	0.00000	1685.60600
3.43751	0.00000	1685.60600
3.44135	0.00000	1685.60600
3.44517	0.00000	1685.60600
3.44899	0.00000	1699.81000
3.45284	0.00000	1699.81000
3.45668	0.00000	1699.81000
3.46051	0.00000	1685.60600
3.46433	0.00000	1685.60600
3.46816	0.00000	1685.60600
3.47201	0.00000	1702.80600
3.47584	0.00000	1702.80600
3.47966	0.00000	1702.80600
3.48349	0.00000	1702.80600
3.48734	0.00000	1680.87100
3.49117	0.00000	1680.87100
3.49500	0.00000	1680.87100
3.49883	0.00000	1685.60600
3.50268	0.00000	1685.60600
3.50651	0.00000	1685.60600
3.51034	0.00000	1685.60600
3.51416	0.00000	1682.81200
3.51799	0.00000	1682.81200
3.52183	0.00000	1682.81200
3.52566	0.00000	1685.60600
3.52950	0.00000	1685.60600
3.53332	0.00000	1685.60600
3.53718	0.00000	1685.60600
3.54102	0.00000	1678.12500
3.54485	0.00000	1678.12500
3.54868	0.00000	1678.12500
3.55253	0.00000	1690.34000
3.55637	0.00000	1690.34000
3.56019	0.00000	1690.34000
3.56402	0.00000	1685.60600
3.56787	0.00000	1685.60600
3.57172	0.00000	1685.60600
3.57554	0.00000	1685.60600
3.57937	0.00000	1690.34000
3.58320	0.00000	1690.34000
3.58705	0.00000	1690.34000
3.59088	0.00000	1680.87100
3.59471	0.00000	1680.87100
3.59854	0.00000	1680.87100
3.60239	0.00000	1680.87100
3.60622	0.00000	1678.12500
3.61005	0.00000	1678.12500
3.61388	0.00000	1678.12500
3.61770	0.00000	1685.60600
3.62156	0.00000	1685.60600
3.62539	0.00000	1685.60600
3.62922	0.00000	1685.60600
3.63304	0.00000	1685.60600
3.63690	0.00000	1685.60600
3.64072	0.00000	1685.60600
3.64454	0.00000	1685.60600
3.64837	0.00000	1685.60600
3.65223	0.00000	1685.60600
3.65605	0.00000	1685.60600
3.65990	0.00000	1685.60600
3.66373	0.00000	1685.60600
3.66755	0.00000	1685.60600
3.67140	0.00000	1678.12500
3.67523	0.00000	1678.12500
3.67905	0.00000	1678.12500
3.68288	0.00000	1680.87100
3.68673	0.00000	1680.87100
3.69056	0.00000	1680.87100
3.69438	0.00000	1680.87100
3.69821	0.00000	1678.12500
3.70207	0.00000	1678.12500
3.70590	0.00000	1678.12500
3.70973	0.00000	1685.60600
3.71355	0.00000	1685.60600
3.71737	0.00000	1685.60600
3.72123	0.00000	1680.87100
3.72506	0.00000	1680.87100
3.72889	0.00000	1680.87100
3.73272	0.00000	1680.87100
3.73657	0.00000	1690.34000
3.74040	0.00000	1690.34000
3.74423	0.00000	1690.34000
3.74805	0.00000	1685.60600
3.75188	0.00000	1685.60600
3.75570	0.00000	1685.60600
3.75953	0.00000	1685.60600
3.76336	0.00000	1699.81000
3.76718	0.00000	1699.81000
3.77102	0.00000	1699.81000
3.77488	0.00000	1685.60600
3.77871	0.00000	1685.60600
3.78253	0.00000	1685.60600
3.78635	0.00000	1685.60600
3.79017	0.00000	1685.60600
3.79399	0.00000	1685.60600
3.79782	0.00000	1685.60600
3.80164	0.00000	1702.80600
3.80546	0.00000	1702.80600
3.80929	0.00000	1702.80600
3.81311	0.00000	1685.60600
3.81694	0.00000	1685.60600
3.82076	0.00000	1685.60600
3.82458	0.00000	1685.60600
3.82840	0.00000	1695.07500
3.83222	0.00000	1695.07500
3.83605	0.00000	1695.07500
3.83988	0.00000	1690.34000
3.84370	0.00000	1690.34000
3.84751	0.00000	1690.34000
3.85134	0.00000	1690.34000
3.85516	0.00000	1699.81000
3.85899	0.00000	1699.81000
3.86281	0.00000	1699.81000
3.86663	0.00000	1702.80600
3.87045	0.00000	1702.80600
3.87427	0.00000	1702.80600
3.87809	0.00000	1702.80600
3.88191	0.00000	1695.07500
3.88573	0.00000	1695.07500
3.88959	0.00000	1695.07500
3.89345	0.00000	1702.80600
3.89729	0.00000	1702.80600
3.90112	0.00000	1702.80600
3.90494	0.00000	1685.60600
3.90878	0.00000	1685.60600
3.91260	0.00000	1685.60600
3.91642	0.00000	1685.60600
3.92024	0.00000	1695.07500
3.92406	0.00000	1695.07500
3.92789	0.00000	1695.07500
3.93171	0.00000	1698.02300
3.93553	0.00000	1698.02300
3.93936	0.00000	1698.02300
3.94318	0.00000	1698.02300
3.94701	0.00000	1699.81000
3.95083	0.00000	1699.81000
3.95465	0.00000	1699.81000
3.95847	0.00000	1702.80600
3.96229	0.00000	1702.80600
3.96612	0.00000	1702.80600
3.96994	0.00000	1702.80600
3.97376	0.00000	1690.34000
3.97759	0.00000	1690.34000
3.98142	0.00000	1690.34000
3.98524	0.00000	1685.60600
3.98906	0.00000	1685.60600
3.99288	0.00000	1685.60600
3.99670	0.00000	1698.02300
4.00053	0.00000	1698.02300
4.00436	0.00000	1698.02300
4.00818	0.00000	1698.02300
4.01201	0.00000	1699.81000
4.01583	0.00000	1699.81000
4.01965	0.00000	1699.81000
4.02347	0.00000	1680.87100
4.02730	0.00000	1680.87100
4.03112	0.00000	1680.87100
4.03494	0.00000	1680.87100
4.03876	0.00000	1695.07500
4.04258	0.00000	1695.07500
4.04640	0.00000	1695.07500
4.05023	0.00000	1685.60600
4.05405	0.00000	1685.60600
4.05788	0.00000	1685.60600
4.06170	0.00000	1685.60600
4.06552	0.00000	1690.34000
4.06934	0.00000	1690.34000
4.07317	0.00000	1690.34000
4.07698	0.00000	1680.87100
4.08081	0.00000	1680.87100
4.08462	0.00000	1680.87100
4.08845	0.00000	1685.60600
4.09227	0.00000	1685.60600
4.09609	0.00000	1685.60600
4.09992	0.00000	1685.60600
4.10374	0.00000	1695.07500
4.10757	0.00000	1695.07500
4.11139	0.00000	1695.07500
4.11521	0.00000	1685.60600
4.11904	0.00000	1685.60600
4.12285	0.00000	1685.60600
4.12668	0.00000	1685.60600
4.13050	0.00000	1678.12500
4.13433	0.00000	1678.12500
4.13815	0.00000	1678.12500
4.14197	0.00000	1680.87100
4.14579	0.00000	1680.87100
4.14961	0.00000	1680.87100
4.15343	0.00000	1680.87100
4.15725	0.00000	1678.12500
4.16107	0.00000	1678.12500
4.16490	0.00000	1678.12500
4.16872	0.00000	1685.60600
4.17255	0.00000	1685.60600
4.17637	0.00000	1685.60600
4.18019	0.00000	1685.60600
4.18401	0.00000	1685.60600
4.18783	0.00000	1685.60600
4.19165	0.00000	1685.60600
4.19547	0.00000	1695.07500
4.19930	0.00000	1695.07500
4.20312	0.00000	1695.07500
4.20694	0.00000	1685.60600
4.21076	0.00000	1685.60600
4.21459	0.00000	1685.60600
4.21841	0.00000	1685.60600
4.22223	0.00000	1682.81200
4.22606	0.00000	1682.81200
4.22988	0.00000	1682.81200
4.23370	0.00000	1685.60600
4.23752	0.00000	1685.60600
4.24134	0.00000	1685.60600
4.24516	0.00000	1685.60600
4.24898	0.00000	1690.34000
4.25280	0.00000	1690.34000
4.25662	0.00000	1690.34000
4.26044	0.00000	1685.60600
4.26426	0.00000	1685.60600
4.26809	0.00000	1685.60600
4.27193	0.00000	1685.60600
4.27575	0.00000	1685.60600
4.27957	0.00000	1685.60600
4.28339	0.00000	1685.60600
4.28721	0.00000	1678.12500
4.29103	0.00000	1678.12500
4.29485	0.00000	1678.12500
4.29868	0.00000	1685.60600
4.30250	0.00000	1685.60600
4.30632	0.00000	1685.60600
4.31014	0.00000	1685.60600
4.31396	0.00000	1678.12500
4.31778	0.00000	1678.12500
4.32160	0.00000	1678.12500
4.32543	0.00000	1680.87100
4.32925	0.00000	1680.87100
4.33307	0.00000	1680.87100
4.33690	0.00000	1680.87100
4.34072	0.00000	1695.07500
4.34453	0.00000	1695.07500
4.34836	0.00000	1695.07500
4.35218	0.00000	1685.60600
4.35600	0.00000	1685.60600
4.35982	0.00000	1685.60600
4.36364	0.00000	1685.60600
4.36746	0.00000	1685.60600
4.37128	0.00000	1685.60600
4.37511	0.00000	1685.60600
4.37893	0.00000	1690.34000
4.38276	0.00000	1690.34000
4.38659	0.00000	1690.34000
4.39041	0.00000	1685.60600
4.39423	0.00000	1685.60600
4.39806	0.00000	1685.60600
4.40188	0.00000	1685.60600
4.40570	0.00000	1682.81200
4.40953	0.00000	1682.81200
4.41336	0.00000	1682.81200
4.41719	0.00000	1685.60600
4.42101	0.00000	1685.60600
4.42483	0.00000	1685.60600
4.42865	0.00000	1685.60600
4.43247	0.00000	1690.34000
4.43630	0.00000	1690.34000
4.44010	0.00000	1690.34000
4.44392	0.00000	1690.34000
4.44774	0.00000	1690.34000
4.45156	0.00000	1690.34000
4.45539	0.00000	1680.87100
4.45921	0.00000	1680.87100
4.46304	0.00000	1680.87100
4.46685	0.00000	1680.87100
4.47068	0.00000	1690.34000
4.47450	0.00000	1690.34000
4.47832	0.00000	1690.34000
4.48214	0.00000	1685.60600
4.48597	0.00000	1685.60600
4.48980	0.00000	1685.60600
4.49362	0.00000	1685.60600
4.49744	0.00000	1695.07500
4.50126	0.00000	1695.07500
4.50508	0.00000	1695.07500
4.50890	0.00000	1702.80600
4.51273	0.00000	1702.80600
4.51655	0.00000	1702.80600
4.52037	0.00000	1702.80600
4.52419	0.00000	1690.34000
4.52801	0.00000	1690.34000
4.53184	0.00000	1690.34000
4.53566	0.00000	1685.60600
4.53948	0.00000	1685.60600
4.54331	0.00000	1685.60600
4.54713	0.00000	1702.80600
4.55095	0.00000	1702.80600
4.55478	0.00000	1702.80600
4.55860	0.00000	1702.80600
4.56242	0.00000	1690.34000
4.56624	0.00000	1690.34000
4.57006	0.00000	1690.34000
4.57388	0.00000	1680.87100
4.57771	0.00000	1680.87100
4.58153	0.00000	1680.87100
4.58535	0.00000	1680.87100
4.58918	0.00000	1699.81000
4.59300	0.00000	1699.81000
4.59682	0.00000	1699.81000
4.60065	0.00000	1680.87100
4.60447	0.00000	1680.87100
4.60829	0.00000	1680.87100
4.61210	0.00000	1680.87100
4.61592	0.00000	1678.12500
4.61974	0.00000	1678.12500
4.62356	0.00000	1678.12500
4.62739	0.00000	1685.60600
4.63123	0.00000	1685.60600
4.63506	0.00000	1685.60600
4.63888	0.00000	1685.60600
4.64270	0.00000	1685.60600
4.64652	0.00000	1685.60600
4.65034	0.00000	1685.60600
4.65417	0.00000	1690.34000
4.65798	0.00000	1690.34000
4.66182	0.00000	1690.34000
4.66564	0.00000	1685.60600
4.66946	0.00000	1685.60600
4.67328	0.00000	1685.60600
4.67710	0.00000	1685.60600
4.68092	0.00000	1682.81200
4.68474	0.00000	1682.81200
4.68857	0.00000	1682.81200
4.69239	0.00000	1690.34000
4.69621	0.00000	1690.34000
4.70003	0.00000	1690.34000
4.70386	0.00000	1690.34000
4.70767	0.00000	1673.43700
4.71149	0.00000	1673.43700
4.71531	0.00000	1673.43700
4.71913	0.00000	1685.60600
4.72295	0.00000	1685.60600
4.72677	0.00000	1685.60600
4.73060	0.00000	1685.60600
4.73442	0.00000	1685.60600
4.73825	0.00000	1685.60600
4.74208	0.00000	1685.60600
4.74590	0.00000	1685.60600
4.74972	0.00000	1685.60600
4.75354	0.00000	1685.60600
4.75736	0.00000	1685.60600
4.76118	0.00000	1685.60600
4.76501	0.00000	1685.60600
4.76882	0.00000	1685.60600
4.77266	0.00000	1678.12500
4.77652	0.00000	1678.12500
4.78035	0.00000	1678.12500
4.78418	0.00000	1680.87100
4.78801	0.00000	1680.87100
4.79183	0.00000	1680.87100
4.79565	0.00000	1680.87100
4.79947	0.00000	1695.07500
4.80329	0.00000	1695.07500
4.80711	0.00000	1695.07500
4.81093	0.00000	1685.60600
4.81476	0.00000	1685.60600
4.81859	0.00000	1685.60600
4.82241	0.00000	1680.87100
4.82623	0.00000	1680.87100
4.83007	0.00000	1680.87100
4.83394	0.00000	1680.87100
4.83777	0.00000	1690.34000
4.84160	0.00000	1690.34000
4.84542	0.00000	1690.34000
4.84925	0.00000	1685.60600
4.85307	0.00000	1685.60600
4.85690	0.00000	1685.60600
4.86072	0.00000	1685.60600
4.86454	0.00000	1682.81200
4.86836	0.00000	1682.81200
4.87218	0.00000	1682.81200
4.87600	0.00000	1680.87100
4.87982	0.00000	1680.87100
4.88364	0.00000	1680.87100
4.88746	0.00000	1680.87100
4.89132	0.00000	1685.60600
4.89514	0.00000	1685.60600
4.89897	0.00000	1685.60600
4.90280	0.00000	1698.02300
4.90662	0.00000	1698.02300
4.91044	0.00000	1698.02300
4.91426	0.00000	1698.02300
4.91808	0.00000	1698.02300
4.92190	0.00000	1698.02300
4.92573	0.00000	1698.02300
4.92955	0.00000	1685.60600
4.93337	0.00000	1685.60600
4.93719	0.00000	1685.60600
4.94100	0.00000	1685.60600
4.94482	0.00000	1685.60600
4.94865	0.00000	1685.60600
4.95247	0.00000	1685.60600
4.95629	0.00000	1690.34000
4.96010	0.00000	1690.34000
4.96392	0.00000	1690.34000
4.96775	0.00000	1680.87100
4.97156	0.00000	1680.87100
4.97539	0.00000	1680.87100
4.97920	0.00000	1680.87100
4.98302	0.00000	1673.43700
4.98684	0.00000	1673.43700
4.99067	0.00000	1673.43700
4.99449	0.00000	1685.60600
4.99831	0.00000	1685.60600
5.00267	0.00000	1685.60600
5.00655	0.00000	1685.60600
5.01039	0.00000	1685.60600
5.01422	0.00000	1685.60600
5.01807	0.00000	1685.60600
5.02191	0.00000	1847.42600
5.02575	0.00000	1847.42600
5.02959	0.00000	1847.42600
5.03347	0.00000	2229.84800
5.03734	0.00000	2229.84800
5.04118	0.00000	2229.84800
5.04501	0.00000	2229.84800
5.04885	0.00000	2553.01300
5.05268	0.00000	2553.01300
5.05651	0.00000	2553.01300
5.06033	0.00000	2553.01300
5.06416	0.00000	2860.16900
5.06800	0.00000	2860.16900
5.07182	0.00000	2860.16900
5.07566	0.00000	2860.16900
5.07949	0.00000	2860.16900
5.08331	0.00000	3142.50000
5.08714	0.00000	3142.50000
5.09098	0.00000	3142.50000
5.09481	0.00000	3142.50000
5.09864	0.00000	3445.84900
5.10248	0.00000	3445.84900
5.10631	0.00000	3445.84900
5.11014	0.00000	3445.84900
5.11397	0.00000	3445.84900
5.11780	0.00000	3773.77700
5.12164	0.00000	3773.77700
5.12547	0.00000	3773.77700
5.12930	0.00000	3773.77700
5.13313	0.00000	3773.77700
5.13697	0.00000	4045.37700
5.14080	0.00000	4045.37700
5.14462	0.00000	4045.37700
5.14845	0.00000	4045.37700
5.15228	0.00000	4045.37700
5.15611	0.00000	4309.47500
5.15994	0.00000	4309.47500
5.16376	0.00000	4309.47500
5.16759	0.00000	4309.47500
5.17142	0.00000	4309.47500
5.17526	0.00000	4309.47500
5.17909	0.00000	4573.86400
5.18292	0.00000	4573.86400
5.18676	0.00000	4573.86400
5.19059	0.00000	4573.86400
5.19443	0.00000	4573.86400
5.19826	0.00000	4573.86400
5.20209	0.00000	4832.97400
5.20593	0.00000	4832.97400
5.20976	0.00000	4832.97400
5.21360	0.00000	4832.97400
5.21744	0.00000	4832.97400
5.22128	0.00000	4832.97400
5.22512	0.00000	5046.70500
5.22896	0.00000	5046.70500
5.23280	0.00000	5046.70500
5.23664	0.00000	5046.70500
5.24047	0.00000	5046.70500
5.24432	0.00000	5046.70500
5.24816	0.00000	5284.97400
5.25201	0.00000	5284.97400
5.25584	0.00000	5284.97400
5.25968	0.00000	5284.97400
5.26351	0.00000	5284.97400
5.26736	0.00000	5284.97400
5.27119	0.00000	5284.97400
5.27503	0.00000	5468.75000
5.27886	0.00000	5468.75000
5.28271	0.00000	5468.75000
5.28655	0.00000	5468.75000
5.29039	0.00000	5468.75000
5.29422	0.00000	5468.75000
5.29808	0.00000	5468.75000
5.30193	0.00000	5468.75000
5.30576	0.00000	5587.76200
5.30959	0.00000	5587.76200
5.31345	0.00000	5587.76200
5.31730	0.00000	5587.76200
5.32113	0.00000	5587.76200
5.32497	0.00000	5587.76200
5.32882	0.00000	5587.76200
5.33268	0.00000	5691.35300
5.33653	0.00000	5691.35300
5.34038	0.00000	5691.35300
5.34422	0.00000	5691.35300
5.34807	0.00000	5691.35300
5.35191	0.00000	5691.35300
5.35575	0.00000	5691.35300
5.35960	0.00000	5744.28000
5.36343	0.00000	5744.28000
5.36727	0.00000	5744.28000
5.37112	0.00000	5744.28000
5.37496	0.00000	5744.28000
5.37880	0.00000	5744.28000
5.38262	0.00000	5744.28000
5.38645	0.00000	5744.28000
5.39028	0.00000	5801.30000
5.39411	0.00000	5801.30000
5.39794	0.00000	5801.30000
5.40177	0.00000	5801.30000
5.40561	0.00000	5801.30000
5.40944	0.00000	5801.30000
5.41326	0.00000	5801.30000
5.41709	0.00000	5801.30000
5.42092	0.00000	5813.31900
5.42475	0.00000	5813.31900
5.42859	0.00000	5813.31900
5.43241	0.00000	5813.31900
5.43624	0.00000	5813.31900
5.44007	0.00000	5813.31900
5.44391	0.00000	5813.31900
5.44775	0.00000	5813.31900
5.45158	0.00000	5824.72800
5.45542	0.00000	5824.72800
5.45924	0.00000	5824.72800
5.46307	0.00000	5824.72800
5.46691	0.00000	5824.72800
5.47074	0.00000	5824.72800
5.47457	0.00000	5824.72800
5.47841	0.00000	5847.03900
5.48226	0.00000	5847.03900
5.48612	0.00000	5847.03900
5.48996	0.00000	5847.03900
5.49381	0.00000	5847.03900
5.49767	0.00000	5847.03900
5.50151	0.00000	5847.03900
5.50535	0.00000	5847.03900
5.50919	0.00000	5843.07100
5.51304	0.00000	5843.07100
5.51689	0.00000	5843.07100
5.52075	0.00000	5843.07100
5.52459	0.00000	5843.07100
5.52844	0.00000	5843.07100
5.53229	0.00000	5843.07100
5.53610	0.00000	5843.07100
5.53995	0.00000	5866.53900
5.54380	0.00000	5866.53900
5.54765	0.00000	5866.53900
5.55150	0.00000	5866.53900
5.55534	0.00000	5866.53900
5.55918	0.00000	5866.53900
5.56302	0.00000	5866.53900
5.56687	0.00000	5866.53900
5.57071	0.00000	5861.41300
5.57457	0.00000	5861.41300
5.57840	0.00000	5861.41300
5.58224	0.00000	5861.41300
5.58607	0.00000	5861.41300
5.58994	0.00000	5861.41300
5.59378	0.00000	5861.41300
5.59763	0.00000	5841.03200
5.60147	0.00000	5841.03200
5.60531	0.00000	5841.03200
5.60914	0.00000	5841.03200
5.61298	0.00000	5841.03200
5.61682	0.00000	5841.03200
5.62067	0.00000	5841.03200
5.62451	0.00000	5841.03200
5.62835	0.00000	5855.29900
5.63219	0.00000	5855.29900
5.63603	0.00000	5855.29900
5.63986	0.00000	5855.29900
5.64370	0.00000	5855.29900
5.64754	0.00000	5855.29900
5.65138	0.00000	5855.29900
5.65522	0.00000	5855.29900
5.65905	0.00000	5829.95100
5.66290	0.00000	5829.95100
5.66676	0.00000	5829.95100
5.67059	0.00000	5829.95100
5.67443	0.00000	5829.95100
5.67827	0.00000	5829.95100
5.68212	0.00000	5829.95100
5.68596	0.00000	5829.95100
5.68980	0.00000	5847.14700
5.69364	0.00000	5847.14700
5.69748	0.00000	5847.14700
5.70131	0.00000	5847.14700
5.70516	0.00000	5847.14700
5.70899	0.00000	5847.14700
5.71283	0.00000	5847.14700
5.71667	0.00000	5839.92900
5.72049	0.00000	5839.92900
5.72432	0.00000	5839.92900
5.72819	0.00000	5839.92900
5.73203	0.00000	5839.92900
5.73586	0.00000	5839.92900
5.73970	0.00000	5839.92900
5.74356	0.00000	5839.92900
5.74740	0.00000	5863.48700
5.75124	0.00000	5863.48700
5.75507	0.00000	5863.48700
5.75891	0.00000	5863.48700
5.76275	0.00000	5863.48700
5.76658	0.00000	5863.48700
5.77043	0.00000	5863.48700
5.77430	0.00000	5863.48700
5.77816	0.00000	5838.99400
5.78201	0.00000	5838.99400
5.78585	0.00000	5838.99400
5.78969	0.00000	5838.99400
5.79353	0.00000	5838.99400
5.79736	0.00000	5838.99400
5.80120	0.00000	5838.99400
5.80504	0.00000	5838.99400
5.80888	0.00000	5862.44500
5.81272	0.00000	5862.44500
5.81657	0.00000	5862.44500
5.82041	0.00000	5862.44500
5.82425	0.00000	5862.44500
5.82808	0.00000	5862.44500
5.83193	0.00000	5862.44500
5.83576	0.00000	5857.31900
5.83959	0.00000	5857.31900
5.84342	0.00000	5857.31900
5.84726	0.00000	5857.31900
5.85109	0.00000	5857.31900
5.85493	0.00000	5857.31900
5.85877	0.00000	5857.31900
5.86261	0.00000	5857.31900
5.86645	0.00000	5871.71000
5.87029	0.00000	5871.71000
5.87413	0.00000	5871.71000
5.87796	0.00000	5871.71000
5.88181	0.00000	5871.71000
5.88565	0.00000	5871.71000
5.88949	0.00000	5871.71000
5.89338	0.00000	5871.71000
5.89723	0.00000	5847.14700
5.90107	0.00000	5847.14700
5.90491	0.00000	5847.14700
5.90875	0.00000	5847.14700
5.91259	0.00000	5847.14700
5.91642	0.00000	5847.14700
5.92026	0.00000	5847.14700
5.92410	0.00000	5847.14700
5.92794	0.00000	5857.33700
5.93178	0.00000	5857.33700
5.93562	0.00000	5857.33700
5.93946	0.00000	5857.33700
5.94329	0.00000	5857.33700
5.94713	0.00000	5857.33700
5.95098	0.00000	5857.33700
5.95481	0.00000	5857.33700
5.95865	0.00000	5872.68000
5.96250	0.00000	5872.68000
5.96635	0.00000	5872.68000
5.97018	0.00000	5872.68000
5.97403	0.00000	5872.68000
5.97787	0.00000	5872.68000
5.98171	0.00000	5872.68000
5.98555	0.00000	5852.21100
5.98939	0.00000	5852.21100
5.99323	0.00000	5852.21100
5.99707	0.00000	5852.21100
6.00091	0.00000	5852.21100
6.00475	0.00000	5852.21100
6.00859	0.00000	5852.21100
6.01243	0.00000	5852.21100
6.01627	0.00000	5851.22200
6.02010	0.00000	5851.22200
6.02395	0.00000	5851.22200
6.02778	0.00000	5851.22200
6.03162	0.00000	5851.22200
6.03546	0.00000	5851.22200
6.03930	0.00000	5851.22200
6.04314	0.00000	5851.22200
6.04698	0.00000	5870.63300
6.05082	0.00000	5870.63300
6.05466	0.00000	5870.63300
6.05850	0.00000	5870.63300
6.06235	0.00000	5870.63300
6.06619	0.00000	5870.63300
6.07002	0.00000	5870.63300
6.07387	0.00000	5870.63300
6.07771	0.00000	5862.44500
6.08154	0.00000	5862.44500
6.08538	0.00000	5862.44500
6.08923	0.00000	5862.44500
6.09307	0.00000	5862.44500
6.09690	0.00000	5862.44500
6.10075	0.00000	5862.44500
6.10459	0.00000	5867.59800
6.10845	0.00000	5867.59800
6.11229	0.00000	5867.59800
6.11610	0.00000	5867.59800
6.11995	0.00000	5867.59800
6.12378	0.00000	5867.59800
6.12762	0.00000	5867.59800
6.13146	0.00000	5867.59800
6.13530	0.00000	5857.33700
6.13915	0.00000	5857.33700
6.14299	0.00000	5857.33700
6.14683	0.00000	5857.33700
6.15067	0.00000	5857.33700
6.15451	0.00000	5857.33700
6.15836	0.00000	5857.33700
6.16219	0.00000	5857.33700
6.16603	0.00000	5859.37500
6.16987	0.00000	5859.37500
6.17370	0.00000	5859.37500
6.17755	0.00000	5859.37500
6.18139	0.00000	5859.37500
6.18523	0.00000	5859.37500
6.18907	0.00000	5859.37500
6.19292	0.00000	5859.37500
6.19675	0.00000	5855.29900
6.20061	0.00000	5855.29900
6.20445	0.00000	5855.29900
6.20829	0.00000	5855.29900
6.21210	0.00000	5855.29900
6.21595	0.00000	5855.29900
6.21979	0.00000	5855.29900
6.22363	0.00000	5864.49200
6.22745	0.00000	5864.49200
6.23130	0.00000	5864.49200
6.23515	0.00000	5864.49200
6.23900	0.00000	5864.49200
6.24284	0.00000	5864.49200
6.24669	0.00000	5864.49200
6.25053	0.00000	5864.49200
6.25438	0.00000	5843.07100
6.25823	0.00000	5843.07100
6.26207	0.00000	5843.07100
6.26592	0.00000	5843.07100
6.26976	0.00000	5843.07100
6.27361	0.00000	5843.07100
6.27745	0.00000	5843.07100
6.28129	0.00000	5843.07100
6.28513	0.00000	5863.45100
6.28898	0.00000	5863.45100
6.29282	0.00000	5863.45100
6.29666	0.00000	5863.45100
6.30050	0.00000	5863.45100
6.30434	0.00000	5863.45100
6.30817	0.00000	5863.45100
6.31201	0.00000	5863.45100
6.31584	0.00000	5861.41300
6.31969	0.00000	5861.41300
6.32354	0.00000	5861.41300
6.32737	0.00000	5861.41300
6.33121	0.00000	5861.41300
6.33506	0.00000	5861.41300
6.33889	0.00000	5861.41300
6.34274	0.00000	5861.41300
6.34656	0.00000	5853.26000
6.35042	0.00000	5853.26000
6.35426	0.00000	5853.26000
6.35810	0.00000	5853.26000
6.36193	0.00000	5853.26000
6.36578	0.00000	5853.26000
6.36961	0.00000	5853.26000
6.37344	0.00000	5858.35100
6.37728	0.00000	5858.35100
6.38111	0.00000	5858.35100
6.38494	0.00000	5858.35100
6.38878	0.00000	5858.35100
6.39262	0.00000	5858.35100
6.39645	0.00000	5858.35100
6.40028	0.00000	5858.35100
6.40410	0.00000	5861.41300
6.40794	0.00000	5861.41300
6.41178	0.00000	5861.41300
6.41561	0.00000	5861.41300
6.41946	0.00000	5861.41300
6.42329	0.00000	5861.41300
6.42712	0.00000	5861.41300
6.43096	0.00000	5861.41300
6.43479	0.00000	5851.22200
6.43863	0.00000	5851.22200
6.44248	0.00000	5851.22200
6.44632	0.00000	5851.22200
6.45016	0.00000	5851.22200
6.45400	0.00000	5851.22200
6.45785	0.00000	5851.22200
6.46168	0.00000	5851.22200
6.46552	0.00000	5843.07100
6.46936	0.00000	5843.07100
6.47319	0.00000	5843.07100
6.47703	0.00000	5843.07100
6.48089	0.00000	5843.07100
6.48472	0.00000	5843.07100
6.48857	0.00000	5843.07100
6.49240	0.00000	5827.64700
6.49625	0.00000	5827.64700
6.50009	0.00000	5827.64700
6.50393	0.00000	5827.64700
6.50777	0.00000	5827.64700
6.51161	0.00000	5827.64700
6.51545	0.00000	5827.64700
6.51929	0.00000	5827.64700
6.52312	0.00000	5848.11600
6.52697	0.00000	5848.11600
6.53080	0.00000	5848.11600
6.53465	0.00000	5848.11600
6.53849	0.00000	5848.11600
6.54234	0.00000	5848.11600
6.54618	0.00000	5848.11600
6.55001	0.00000	5848.11600
6.55385	0.00000	5851.22200
6.55770	0.00000	5851.22200
6.56154	0.00000	5851.22200
6.56538	0.00000	5851.22200
6.56921	0.00000	5851.22200
6.57305	0.00000	5851.22200
6.57690	0.00000	5851.22200
6.58076	0.00000	5851.22200
6.58460	0.00000	5845.10900
6.58844	0.00000	5845.10900
6.59229	0.00000	5845.10900
6.59611	0.00000	5845.10900
6.59995	0.00000	5845.10900
6.60379	0.00000	5845.10900
6.60763	0.00000	5845.10900
6.61146	0.00000	5844.02300
6.61530	0.00000	5844.02300
6.61913	0.00000	5844.02300
6.62296	0.00000	5844.02300
6.62680	0.00000	5844.02300
6.63064	0.00000	5844.02300
6.63450	0.00000	5844.02300
6.63833	0.00000	5844.02300
6.64217	0.00000	5849.18500
6.64601	0.00000	5849.18500
6.64985	0.00000	5849.18500
6.65369	0.00000	5849.18500
6.65754	0.00000	5849.18500
6.66137	0.00000	5849.18500
6.66523	0.00000	5849.18500
6.66907	0.00000	5849.18500
6.67290	0.00000	5858.36000
6.67675	0.00000	5858.36000
6.68059	0.00000	5858.36000
6.68443	0.00000	5858.36000
6.68826	0.00000	5858.36000
6.69210	0.00000	5858.36000
6.69595	0.00000	5858.36000
6.69978	0.00000	5858.36000
6.70362	0.00000	5873.64100
6.70746	0.00000	5873.64100
6.71130	0.00000	5873.64100
6.71513	0.00000	5873.64100
6.71898	0.00000	5873.64100
6.72282	0.00000	5873.64100
6.72666	0.00000	5873.64100
6.73050	0.00000	5873.64100
6.73434	0.00000	5853.26000
6.73818	0.00000	5853.26000
6.74203	0.00000	5853.26000
6.74587	0.00000	5853.26000
6.74971	0.00000	5853.26000
6.75356	0.00000	5853.26000
6.75740	0.00000	5853.26000
6.76124	0.00000	5839.92900
6.76509	0.00000	5839.92900
6.76894	0.00000	5839.92900
6.77280	0.00000	5839.92900
6.77669	0.00000	5839.92900
6.78054	0.00000	5839.92900
6.78440	0.00000	5839.92900
6.78824	0.00000	5839.92900
6.79209	0.00000	5859.37500
6.79594	0.00000	5859.37500
6.79979	0.00000	5859.37500
6.80363	0.00000	5859.37500
6.80747	0.00000	5859.37500
6.81132	0.00000	5859.37500
6.81516	0.00000	5859.37500
6.81901	0.00000	5859.37500
6.82285	0.00000	5849.18500
6.82671	0.00000	5849.18500
6.83055	0.00000	5849.18500
6.83439	0.00000	5849.18500
6.83823	0.00000	5849.18500
6.84208	0.00000	5849.18500
6.84591	0.00000	5849.18500
6.84975	0.00000	5849.18500
6.85360	0.00000	5841.03200
6.85744	0.00000	5841.03200
6.86129	0.00000	5841.03200
6.86514	0.00000	5841.03200
6.86899	0.00000	5841.03200
6.87283	0.00000	5841.03200
6.87667	0.00000	5841.03200
6.88051	0.00000	5857.31900
6.88439	0.00000	5857.31900
6.88824	0.00000	5857.31900
6.89211	0.00000	5857.31900
6.89595	0.00000	5857.31900
6.89979	0.00000	5857.31900
6.90363	0.00000	5857.31900
6.90746	0.00000	5857.31900
6.91129	0.00000	5860.39800
6.91514	0.00000	5860.39800
6.91898	0.00000	5860.39800
6.92282	0.00000	5860.39800
6.92665	0.00000	5860.39800
6.93049	0.00000	5860.39800
6.93434	0.00000	5860.39800
6.93817	0.00000	5860.39800
6.94200	0.00000	5847.14700
6.94584	0.00000	5847.14700
6.94967	0.00000	5847.14700
6.95351	0.00000	5847.14700
6.95734	0.00000	5847.14700
6.96118	0.00000	5847.14700
6.96502	0.00000	5847.14700
6.96886	0.00000	5847.14700
6.97270	0.00000	5867.52700
6.97655	0.00000	5867.52700
6.98039	0.00000	5867.52700
6.98422	0.00000	5867.52700
6.98806	0.00000	5867.52700
6.99194	0.00000	5867.52700
6.99579	0.00000	5867.52700
6.99964	0.00000	5858.35100
7.00350	0.00000	5858.35100
7.00735	0.00000	5858.35100
7.01119	0.00000	5858.35100
7.01504	0.00000	5858.35100
7.01888	0.00000	5858.35100
7.02272	0.00000	5858.35100
7.02656	0.00000	5858.35100
7.03041	0.00000	5841.03200
7.03425	0.00000	5841.03200
7.03809	0.00000	5841.03200
7.04193	0.00000	5841.03200
7.04577	0.00000	5841.03200
7.04961	0.00000	5841.03200
7.05345	0.00000	5841.03200
7.05729	0.00000	5841.03200
7.06113	0.00000	5847.14700
7.06497	0.00000	5847.14700
7.06881	0.00000	5847.14700
7.07265	0.00000	5847.14700
7.07649	0.00000	5847.14700
7.08034	0.00000	5847.14700
7.08418	0.00000	5847.14700
7.08801	0.00000	5847.14700
7.09185	0.00000	5827.92200
7.09569	0.00000	5827.92200
7.09954	0.00000	5827.92200
7.10338	0.00000	5827.92200
7.10721	0.00000	5827.92200
7.11106	0.00000	5827.92200
7.11490	0.00000	5827.92200
7.11874	0.00000	5850.16400
7.12259	0.00000	5850.16400
7.12644	0.00000	5850.16400
7.13027	0.00000	5850.16400
7.13411	0.00000	5850.16400
7.13795	0.00000	5850.16400
7.14178	0.00000	5850.16400
7.14563	0.00000	5850.16400
7.14946	0.00000	5849.18500
7.15330	0.00000	5849.18500
7.15714	0.00000	5849.18500
7.16097	0.00000	5849.18500
7.16482	0.00000	5849.18500
7.16866	0.00000	5849.18500
7.17250	0.00000	5849.18500
7.17634	0.00000	5849.18500
7.18018	0.00000	5853.26000
7.18403	0.00000	5853.26000
7.18786	0.00000	5853.26000
7.19170	0.00000	5853.26000
7.19554	0.00000	5853.26000
7.19938	0.00000	5853.26000
7.20322	0.00000	5853.26000
7.20707	0.00000	5853.26000
7.21091	0.00000	5865.48900
7.21476	0.00000	5865.48900
7.21860	0.00000	5865.48900
7.22244	0.00000	5865.48900
7.22628	0.00000	5865.48900
7.23013	0.00000	5865.48900
7.23396	0.00000	5865.48900
7.23780	0.00000	5865.48900
7.24163	0.00000	5849.18500
7.24548	0.00000	5849.18500
7.24933	0.00000	5849.18500
7.25318	0.00000	5849.18500
7.25702	0.00000	5849.18500
7.26087	0.00000	5849.18500
7.26471	0.00000	5849.18500
7.26856	0.00000	5850.16400
7.27239	0.00000	5850.16400
7.27623	0.00000	5850.16400
7.28008	0.00000	5850.16400
7.28394	0.00000	5850.16400
7.28777	0.00000	5850.16400
7.29162	0.00000	5850.16400
7.29546	0.00000	5850.16400
7.29930	0.00000	5857.33700
7.30314	0.00000	5857.33700
7.30700	0.00000	5857.33700
7.31084	0.00000	5857.33700
7.31468	0.00000	5857.33700
7.31852	0.00000	5857.33700
7.32236	0.00000	5857.33700
7.32620	0.00000	5857.33700
7.33004	0.00000	5874.72700
7.33388	0.00000	5874.72700
7.33772	0.00000	5874.72700
7.34156	0.00000	5874.72700
7.34540	0.00000	5874.72700
7.34924	0.00000	5874.72700
7.35309	0.00000	5874.72700
7.35694	0.00000	5874.72700
7.36078	0.00000	5860.39800
7.36462	0.00000	5860.39800
7.36846	0.00000	5860.39800
7.37230	0.00000	5860.39800
7.37610	0.00000	5860.39800
7.37995	0.00000	5860.39800
7.38377	0.00000	5860.39800
7.38761	0.00000	5851.15100
7.39147	0.00000	5851.15100
7.39530	0.00000	5851.15100
7.39914	0.00000	5851.15100
7.40299	0.00000	5851.15100
7.40684	0.00000	5851.15100
7.41069	0.00000	5851.15100
7.41453	0.00000	5851.15100
7.41838	0.00000	5834.91800
7.42222	0.00000	5834.91800
7.42606	0.00000	5834.91800
7.42989	0.00000	5834.91800
7.43374	0.00000	5834.91800
7.43758	0.00000	5834.91800
7.44142	0.00000	5834.91800
7.44527	0.00000	5834.91800
7.44910	0.00000	5849.18500
7.45294	0.00000	5849.18500
7.45678	0.00000	5849.18500
7.46063	0.00000	5849.18500
7.46447	0.00000	5849.18500
7.46832	0.00000	5849.18500
7.47217	0.00000	5849.18500
7.47601	0.00000	5849.18500
7.47984	0.00000	5855.29900
7.48369	0.00000	5855.29900
7.48753	0.00000	5855.29900
7.49137	0.00000	5855.29900
7.49523	0.00000	5855.29900
7.49906	0.00000	5855.29900
7.50291	0.00000	5855.29900
7.50675	0.00000	5839.92900
7.51065	0.00000	5839.92900
7.51448	0.00000	5839.92900
7.51832	0.00000	5839.92900
7.52215	0.00000	5839.92900
7.52599	0.00000	5839.92900
7.52983	0.00000	5839.92900
7.53367	0.00000	5839.92900
7.53751	0.00000	5851.22200
7.54134	0.00000	5851.22200
7.54517	0.00000	5851.22200
7.54901	0.00000	5851.22200
7.55284	0.00000	5851.22200
7.55669	0.00000	5851.22200
7.56053	0.00000	5851.22200
7.56436	0.00000	5851.22200
7.56820	0.00000	5843.07100
7.57204	0.00000	5843.07100
7.57588	0.00000	5843.07100
7.57972	0.00000	5843.07100
7.58356	0.00000	5843.07100
7.58740	0.00000	5843.07100
7.59124	0.00000	5843.07100
7.59507	0.00000	5843.07100
7.59891	0.00000	5856.30400
7.60276	0.00000	5856.30400
7.60659	0.00000	5856.30400
7.61043	0.00000	5856.30400
7.61428	0.00000	5856.30400
7.61812	0.00000	5856.30400
7.62196	0.00000	5856.30400
7.62580	0.00000	5823.55300
7.62965	0.00000	5823.55300
7.63349	0.00000	5823.55300
7.63732	0.00000	5823.55300
7.64116	0.00000	5823.55300
7.64500	0.00000	5823.55300
7.64884	0.00000	5823.55300
7.65268	0.00000	5823.55300
7.65651	0.00000	5844.02300
7.66035	0.00000	5844.02300
7.66418	0.00000	5844.02300
7.66802	0.00000	5844.02300
7.67187	0.00000	5844.02300
7.67570	0.00000	5844.02300
7.67956	0.00000	5844.02300
7.68340	0.00000	5844.02300
7.68725	0.00000	5866.53900
7.69108	0.00000	5866.53900
7.69493	0.00000	5866.53900
7.69877	0.00000	5866.53900
7.70261	0.00000	5866.53900
7.70645	0.00000	5866.53900
7.71030	0.00000	5866.53900
7.71417	0.00000	5866.53900
7.71801	0.00000	5854.25800
7.72186	0.00000	5854.25800
7.72570	0.00000	5854.25800
7.72954	0.00000	5854.25800
7.73338	0.00000	5854.25800
7.73722	0.00000	5854.25800
7.74107	0.00000	5854.25800
7.74491	0.00000	5847.03900
7.74875	0.00000	5847.03900
7.75259	0.00000	5847.03900
7.75643	0.00000	5847.03900
7.76027	0.00000	5847.03900
7.76410	0.00000	5847.03900
7.76794	0.00000	5847.03900
7.77179	0.00000	5847.03900
7.77566	0.00000	5850.16400
7.77950	0.00000	5850.16400
7.78335	0.00000	5850.16400
7.78719	0.00000	5850.16400
7.79103	0.00000	5850.16400
7.79487	0.00000	5850.16400
7.79871	0.00000	5850.16400
7.80255	0.00000	5850.16400
7.80639	0.00000	5868.58600
7.81023	0.00000	5868.58600
7.81406	0.00000	5868.58600
7.81791	0.00000	5868.58600
7.82175	0.00000	5868.58600
7.82558	0.00000	5868.58600
7.82942	0.00000	5868.58600
7.83326	0.00000	5868.58600
7.83710	0.00000	5838.99400
7.84094	0.00000	5838.99400
7.84477	0.00000	5838.99400
7.84862	0.00000	5838.99400
7.85246	0.00000	5838.99400
7.85630	0.00000	5838.99400
7.86010	0.00000	5838.99400
7.86395	0.00000	5844.98300
7.86780	0.00000	5844.98300
7.87164	0.00000	5844.98300
7.87548	0.00000	5844.98300
7.87932	0.00000	5844.98300
7.88316	0.00000	5844.98300
7.88708	0.00000	5844.98300
7.89096	0.00000	5844.98300
7.89482	0.00000	5844.02300
7.89866	0.00000	5844.02300
7.90249	0.00000	5844.02300
7.90634	0.00000	5844.02300
7.91018	0.00000	5844.02300
7.91402	0.00000	5844.02300
7.91786	0.00000	5844.02300
7.92170	0.00000	5844.02300
7.92554	0.00000	5855.29900
7.92937	0.00000	5855.29900
7.93321	0.00000	5855.29900
7.93705	0.00000	5855.29900
7.94090	0.00000	5855.29900
7.94474	0.00000	5855.29900
7.94858	0.00000	5855.29900
7.95242	0.00000	5855.29900
7.95626	0.00000	5840.09700
7.96009	0.00000	5840.09700
7.96394	0.00000	5840.09700
7.96777	0.00000	5840.09700
7.97162	0.00000	5840.09700
7.97547	0.00000	5840.09700
7.97930	0.00000	5840.09700
7.98315	0.00000	5862.44500
7.98700	0.00000	5862.44500
7.99085	0.00000	5862.44500
7.99469	0.00000	5862.44500
7.99854	0.00000	5862.44500
8.00239	0.00000	5862.44500
8.00622	0.00000	5862.44500
8.01006	0.00000	5862.44500
8.01391	0.00000	5870.63300
8.01775	0.00000	5870.63300
8.02161	0.00000	5870.63300
8.02545	0.00000	5870.63300
8.02929	0.00000	5870.63300
8.03312	0.00000	5870.63300
8.03697	0.00000	5870.63300
8.04081	0.00000	5870.63300
8.04465	0.00000	5855.29900
8.04849	0.00000	5855.29900
8.05233	0.00000	5855.29900
8.05617	0.00000	5855.29900
8.06001	0.00000	5855.29900
8.06385	0.00000	5855.29900
8.06769	0.00000	5855.29900
8.07153	0.00000	5855.29900
8.07537	0.00000	5838.99400
8.07921	0.00000	5838.99400
8.08306	0.00000	5838.99400
8.08690	0.00000	5838.99400
8.09074	0.00000	5838.99400
8.09458	0.00000	5838.99400
8.09842	0.00000	5838.99400
8.10227	0.00000	5825.60000
8.10611	0.00000	5825.60000
8.10995	0.00000	5825.60000
8.11380	0.00000	5825.60000
8.11764	0.00000	5825.60000
8.12148	0.00000	5825.60000
8.12533	0.00000	5825.60000
8.12918	0.00000	5825.60000
8.13302	0.00000	5850.16400
8.13686	0.00000	5850.16400
8.14071	0.00000	5850.16400
8.14455	0.00000	5850.16400
8.14839	0.00000	5850.16400
8.15223	0.00000	5850.16400
8.15608	0.00000	5850.16400
8.15995	0.00000	5850.16400
8.16379	0.00000	5870.63300
8.16763	0.00000	5870.63300
8.17148	0.00000	5870.63300
8.17533	0.00000	5870.63300
8.17918	0.00000	5870.63300
8.18302	0.00000	5870.63300
8.18688	0.00000	5870.63300
8.19073	0.00000	5870.63300
8.19458	0.00000	5841.03200
8.19843	0.00000	5841.03200
8.20228	0.00000	5841.03200
8.20614	0.00000	5841.03200
8.20999	0.00000	5841.03200
8.21382	0.00000	5841.03200
8.21766	0.00000	5841.03200
8.22150	0.00000	5861.43100
8.22535	0.00000	5861.43100
8.22919	0.00000	5861.43100
8.23303	0.00000	5861.43100
8.23687	0.00000	5861.43100
8.24072	0.00000	5861.43100
8.24456	0.00000	5861.43100
8.24842	0.00000	5861.43100
8.25226	0.00000	5846.07000
8.25610	0.00000	5846.07000
8.25995	0.00000	5846.07000
8.26379	0.00000	5846.07000
8.26763	0.00000	5846.07000
8.27148	0.00000	5846.07000
8.27532	0.00000	5846.07000
8.27916	0.00000	5846.07000
8.28300	0.00000	5843.07100
8.28685	0.00000	5843.07100
8.29069	0.00000	5843.07100
8.29453	0.00000	5843.07100
8.29837	0.00000	5843.07100
8.30221	0.00000	5843.07100
8.30605	0.00000	5843.07100
8.30989	0.00000	5843.07100
8.31373	0.00000	5832.88000
8.31757	0.00000	5832.88000
8.32142	0.00000	5832.88000
8.32526	0.00000	5832.88000
8.32910	0.00000	5832.88000
8.33294	0.00000	5832.88000
8.33678	0.00000	5832.88000
8.34062	0.00000	5831.74100
8.34446	0.00000	5831.74100
8.34830	0.00000	5831.74100
8.35210	0.00000	5831.74100
8.35596	0.00000	5831.74100
8.35979	0.00000	5831.74100
8.36364	0.00000	5831.74100
8.36749	0.00000	5831.74100
8.37133	0.00000	5871.71000
8.37517	0.00000	5871.71000
8.37902	0.00000	5871.71000
8.38285	0.00000	5871.71000
8.38670	0.00000	5871.71000
8.39053	0.00000	5871.71000
8.39437	0.00000	5871.71000
8.39822	0.00000	5871.71000
8.40205	0.00000	5845.10900
8.40590	0.00000	5845.10900
8.40973	0.00000	5845.10900
8.41358	0.00000	5845.10900
8.41742	0.00000	5845.10900
8.42126	0.00000	5845.10900
8.42510	0.00000	5845.10900
8.42894	0.00000	5845.10900
8.43278	0.00000	5843.07100
8.43662	0.00000	5843.07100
8.44046	0.00000	5843.07100
8.44430	0.00000	5843.07100
8.44810	0.00000	5843.07100
8.45195	0.00000	5843.07100
8.45579	0.00000	5843.07100
8.45963	0.00000	5837.88200
8.46345	0.00000	5837.88200
8.46729	0.00000	5837.88200
8.47113	0.00000	5837.88200
8.47497	0.00000	5837.88200
8.47883	0.00000	5837.88200
8.48266	0.00000	5837.88200
8.48651	0.00000	5837.88200
8.49034	0.00000	5865.54300
8.49420	0.00000	5865.54300
8.49804	0.00000	5865.54300
8.50189	0.00000	5865.54300
8.50573	0.00000	5865.54300
8.50958	0.00000	5865.54300
8.51341	0.00000	5865.54300
8.51725	0.00000	5865.54300
8.52109	0.00000	5847.14700
8.52494	0.00000	5847.14700
8.52878	0.00000	5847.14700
8.53262	0.00000	5847.14700
8.53646	0.00000	5847.14700
8.54030	0.00000	5847.14700
8.54411	0.00000	5847.14700
8.54794	0.00000	5847.14700
8.55178	0.00000	5861.41300
8.55563	0.00000	5861.41300
8.55947	0.00000	5861.41300
8.56331	0.00000	5861.41300
8.56715	0.00000	5861.41300
8.57100	0.00000	5861.41300
8.57484	0.00000	5861.41300
8.57868	0.00000	5861.41300
8.58252	0.00000	5842.12600
8.58637	0.00000	5842.12600
8.59021	0.00000	5842.12600
8.59406	0.00000	5842.12600
8.59790	0.00000	5842.12600
8.60174	0.00000	5842.12600
8.60558	0.00000	5842.12600
8.60942	0.00000	5851.22200
8.61328	0.00000	5851.22200
8.61712	0.00000	5851.22200
8.62096	0.00000	5851.22200
8.62480	0.00000	5851.22200
8.62864	0.00000	5851.22200
8.63248	0.00000	5851.22200
8.63632	0.00000	5851.22200
8.64017	0.00000	5860.38900
8.64401	0.00000	5860.38900
8.64785	0.00000	5860.38900
8.65169	0.00000	5860.38900
8.65553	0.00000	5860.38900
8.65937	0.00000	5860.38900
8.66322	0.00000	5860.38900
8.66707	0.00000	5860.38900
8.67091	0.00000	5850.24300
8.67476	0.00000	5850.24300
8.67859	0.00000	5850.24300
8.68245	0.00000	5850.24300
8.68629	0.00000	5850.24300
8.69014	0.00000	5850.24300
8.69399	0.00000	5850.24300
8.69784	0.00000	5850.24300
8.70169	0.00000	5854.30200
8.70553	0.00000	5854.30200
8.70938	0.00000	5854.30200
8.71322	0.00000	5854.30200
8.71707	0.00000	5854.30200
8.72093	0.00000	5854.30200
8.72478	0.00000	5854.30200
8.72862	0.00000	5851.22200
8.73245	0.00000	5851.22200
8.73629	0.00000	5851.22200
8.74010	0.00000	5851.22200
8.74394	0.00000	5851.22200
8.74778	0.00000	5851.22200
8.75161	0.00000	5851.22200
8.75545	0.00000	5851.22200
8.75929	0.00000	5870.63300
8.76314	0.00000	5870.63300
8.76698	0.00000	5870.63300
8.77082	0.00000	5870.63300
8.77470	0.00000	5870.63300
8.77855	0.00000	5870.63300
8.78239	0.00000	5870.63300
8.78623	0.00000	5870.63300
8.79007	0.00000	5842.12600
8.79390	0.00000	5842.12600
8.79774	0.00000	5842.12600
8.80158	0.00000	5842.12600
8.80541	0.00000	5842.12600
8.80925	0.00000	5842.12600
8.81308	0.00000	5842.12600
8.81692	0.00000	5842.12600
8.82077	0.00000	5844.15600
8.82461	0.00000	5844.15600
8.82844	0.00000	5844.15600
8.83228	0.00000	5844.15600
8.83610	0.00000	5844.15600
8.83994	0.00000	5844.15600
8.84378	0.00000	5844.15600
8.84762	0.00000	5844.15600
8.85145	0.00000	5848.21400
8.85530	0.00000	5848.21400
8.85914	0.00000	5848.21400
8.86297	0.00000	5848.21400
8.86680	0.00000	5848.21400
8.87064	0.00000	5848.21400
8.87447	0.00000	5848.21400
8.87831	0.00000	5862.44500
8.88216	0.00000	5862.44500
8.88600	0.00000	5862.44500
8.88984	0.00000	5862.44500
8.89372	0.00000	5862.44500
8.89758	0.00000	5862.44500
8.90143	0.00000	5862.44500
8.90531	0.00000	5862.44500
8.90916	0.00000	5874.72700
8.91300	0.00000	5874.72700
8.91685	0.00000	5874.72700
8.92070	0.00000	5874.72700
8.92456	0.00000	5874.72700
8.92841	0.00000	5874.72700
8.93225	0.00000	5874.72700
8.93611	0.00000	5874.72700
8.93995	0.00000	5857.33700
8.94379	0.00000	5857.33700
8.94764	0.00000	5857.33700
8.95148	0.00000	5857.33700
8.95532	0.00000	5857.33700
8.95917	0.00000	5857.33700
8.96302	0.00000	5857.33700
8.96687	0.00000	5857.33700
8.97071	0.00000	5857.33700
8.97456	0.00000	5857.33700
8.97841	0.00000	5857.33700
8.98226	0.00000	5857.33700
8.98610	0.00000	5857.33700
8.98995	0.00000	5857.33700
8.99380	0.00000	5857.33700
8.99764	0.00000	5862.44500
9.00150	0.00000	5862.44500
9.00534	0.00000	5862.44500
9.00918	0.00000	5862.44500
9.01302	0.00000	5862.44500
9.01686	0.00000	5862.44500
9.02069	0.00000	5862.44500
9.02453	0.00000	5862.44500
9.02837	0.00000	5872.68000
9.03220	0.00000	5872.68000
9.03605	0.00000	5872.68000
9.03990	0.00000	5872.68000
9.04373	0.00000	5872.68000
9.04757	0.00000	5872.68000
9.05141	0.00000	5872.68000
9.05525	0.00000	5872.68000
9.05909	0.00000	5849.18500
9.06293	0.00000	5849.18500
9.06677	0.00000	5849.18500
9.07061	0.00000	5849.18500
9.07445	0.00000	5849.18500
9.07829	0.00000	5849.18500
9.08213	0.00000	5849.18500
9.08597	0.00000	5849.18500
9.08981	0.00000	5859.37500
9.09366	0.00000	5859.37500
9.09749	0.00000	5859.37500
9.10133	0.00000	5859.37500
9.10517	0.00000	5859.37500
9.10900	0.00000	5859.37500
9.11284	0.00000	5859.37500
9.11667	0.00000	5859.37500
9.12050	0.00000	5841.03200
9.12434	0.00000	5841.03200
9.12817	0.00000	5841.03200
9.13201	0.00000	5841.03200
9.13585	0.00000	5841.03200
9.13969	0.00000	5841.03200
9.14353	0.00000	5841.03200
9.14736	0.00000	5860.39800
9.15122	0.00000	5860.39800
9.15506	0.00000	5860.39800
9.15890	0.00000	5860.39800
9.16274	0.00000	5860.39800
9.16657	0.00000	5860.39800
9.17041	0.00000	5860.39800
9.17425	0.00000	5860.39800
9.17808	0.00000	5863.45100
9.18191	0.00000	5863.45100
9.18574	0.00000	5863.45100
9.18958	0.00000	5863.45100
9.19341	0.00000	5863.45100
9.19724	0.00000	5863.45100
9.20107	0.00000	5863.45100
9.20491	0.00000	5863.45100
9.20874	0.00000	5873.64100
9.21257	0.00000	5873.64100
9.21640	0.00000	5873.64100
9.22027	0.00000	5873.64100
9.22410	0.00000	5873.64100
9.22796	0.00000	5873.64100
9.23180	0.00000	5873.64100
9.23564	0.00000	5873.64100
9.23948	0.00000	5844.15600
9.24332	0.00000	5844.15600
9.24716	0.00000	5844.15600
9.25101	0.00000	5844.15600
9.25486	0.00000	5844.15600
9.25870	0.00000	5844.15600
9.26254	0.00000	5844.15600
9.26638	0.00000	5864.49200
9.27020	0.00000	5864.49200
9.27404	0.00000	5864.49200
9.27789	0.00000	5864.49200
9.28173	0.00000	5864.49200
9.28557	0.00000	5864.49200
9.28940	0.00000	5864.49200
9.29324	0.00000	5864.49200
9.29709	0.00000	5843.07100
9.30093	0.00000	5843.07100
9.30477	0.00000	5843.07100
9.30861	0.00000	5843.07100
9.31245	0.00000	5843.07100
9.31629	0.00000	5843.07100
9.32010	0.00000	5843.07100
9.32395	0.00000	5843.07100
9.32780	0.00000	5857.33700
9.33164	0.00000	5857.33700
9.33549	0.00000	5857.33700
9.33933	0.00000	5857.33700
9.34317	0.00000	5857.33700
9.34701	0.00000	5857.33700
9.35086	0.00000	5857.33700
9.35470	0.00000	5857.33700
9.35854	0.00000	5875.67900
9.36238	0.00000	5875.67900
9.36622	0.00000	5875.67900
9.37006	0.00000	5875.67900
9.37391	0.00000	5875.67900
9.37775	0.00000	5875.67900
9.38159	0.00000	5875.67900
9.38543	0.00000	5875.67900
9.38927	0.00000	5846.18500
9.39312	0.00000	5846.18500
9.39697	0.00000	5846.18500
9.40080	0.00000	5846.18500
9.40465	0.00000	5846.18500
9.40849	0.00000	5846.18500
9.41234	0.00000	5846.18500
9.41619	0.00000	5855.29900
9.42004	0.00000	5855.29900
9.42387	0.00000	5855.29900
9.42771	0.00000	5855.29900
9.43155	0.00000	5855.29900
9.43539	0.00000	5855.29900
9.43923	0.00000	5855.29900
9.44307	0.00000	5855.29900
9.44691	0.00000	5860.38900
9.45075	0.00000	5860.38900
9.45459	0.00000	5860.38900
9.45843	0.00000	5860.38900
9.46226	0.00000	5860.38900
9.46610	0.00000	5860.38900
9.46994	0.00000	5860.38900
9.47378	0.00000	5860.38900
9.47761	0.00000	5875.67900
9.48145	0.00000	5875.67900
9.48529	0.00000	5875.67900
9.48913	0.00000	5875.67900
9.49297	0.00000	5875.67900
9.49680	0.00000	5875.67900
9.50064	0.00000	5875.67900
9.50447	0.00000	5875.67900
9.50831	0.00000	5861.41300
9.51210	0.00000	5861.41300
9.51594	0.00000	5861.41300
9.51977	0.00000	5861.41300
9.52361	0.00000	5861.41300
9.52745	0.00000	5861.41300
9.53128	0.00000	5861.41300
9.53512	0.00000	5861.41300
9.53895	0.00000	5853.26000
9.54278	0.00000	5853.26000
9.54662	0.00000	5853.26000
9.55045	0.00000	5853.26000
9.55428	0.00000	5853.26000
9.55812	0.00000	5853.26000
9.56195	0.00000	5853.26000
9.56579	0.00000	5876.77400
9.56965	0.00000	5876.77400
9.57349	0.00000	5876.77400
9.57732	0.00000	5876.77400
9.58115	0.00000	5876.77400
9.58499	0.00000	5876.77400
9.58882	0.00000	5876.77400
9.59266	0.00000	5876.77400
9.59650	0.00000	5858.36000
9.60033	0.00000	5858.36000
9.60417	0.00000	5858.36000
9.60800	0.00000	5858.36000
9.61184	0.00000	5858.36000
9.61568	0.00000	5858.36000
9.61951	0.00000	5858.36000
9.62335	0.00000	5858.36000
9.62719	0.00000	5860.38900
9.63103	0.00000	5860.38900
9.63487	0.00000	5860.38900
9.63871	0.00000	5860.38900
9.64255	0.00000	5860.38900
9.64639	0.00000	5860.38900
9.65022	0.00000	5860.38900
9.65408	0.00000	5860.38900
9.65791	0.00000	5866.47700
9.66175	0.00000	5866.47700
9.66559	0.00000	5866.47700
9.66944	0.00000	5866.47700
9.67328	0.00000	5866.47700
9.67713	0.00000	5866.47700
9.68097	0.00000	5866.47700
9.68482	0.00000	5866.47700
9.68865	0.00000	5848.21400
9.69250	0.00000	5848.21400
9.69636	0.00000	5848.21400
9.70021	0.00000	5848.21400
9.70406	0.00000	5848.21400
9.70791	0.00000	5848.21400
9.71175	0.00000	5848.21400
9.71559	0.00000	5851.22200
9.71943	0.00000	5851.22200
9.72327	0.00000	5851.22200
9.72711	0.00000	5851.22200
9.73095	0.00000	5851.22200
9.73479	0.00000	5851.22200
9.73863	0.00000	5851.22200
9.74247	0.00000	5851.22200
9.74631	0.00000	5856.33100
9.75015	0.00000	5856.33100
9.75398	0.00000	5856.33100
9.75782	0.00000	5856.33100
9.76166	0.00000	5856.33100
9.76550	0.00000	5856.33100
9.76935	0.00000	5856.33100
9.77319	0.00000	5856.33100
9.77707	0.00000	5854.30200
9.78092	0.00000	5854.30200
9.78476	0.00000	5854.30200
9.78862	0.00000	5854.30200
9.79246	0.00000	5854.30200
9.79630	0.00000	5854.30200
9.80010	0.00000	5854.30200
9.80394	0.00000	5854.30200
9.80778	0.00000	5860.38900
9.81162	0.00000	5860.38900
9.81546	0.00000	5860.38900
9.81930	0.00000	5860.38900
9.82315	0.00000	5860.38900
9.82699	0.00000	5860.38900
9.83083	0.00000	5860.38900
9.83467	0.00000	5880.86800
9.83850	0.00000	5880.86800
9.84233	0.00000	5880.86800
9.84617	0.00000	5880.86800
9.85001	0.00000	5880.86800
9.85385	0.00000	5880.86800
9.85770	0.00000	5880.86800
9.86154	0.00000	5880.86800
9.86537	0.00000	5860.39800
9.86922	0.00000	5860.39800
9.87306	0.00000	5860.39800
9.87690	0.00000	5860.39800
9.88074	0.00000	5860.39800
9.88459	0.00000	5860.39800
9.88843	0.00000	5860.39800
9.89231	0.00000	5860.39800
9.89616	0.00000	5845.10900
9.90001	0.00000	5845.10900
9.90385	0.00000	5845.10900
9.90769	0.00000	5845.10900
9.91153	0.00000	5845.10900
9.91537	0.00000	5845.10900
9.91922	0.00000	5845.10900
9.92307	0.00000	5845.10900
9.92691	0.00000	5843.07100
9.93077	0.00000	5843.07100
9.93461	0.00000	5843.07100
9.93847	0.00000	5843.07100
9.94231	0.00000	5843.07100
9.94616	0.00000	5843.07100
9.95001	0.00000	5843.07100
9.95385	0.00000	5843.07100
9.95769	0.00000	5862.44500
9.96153	0.00000	5862.44500
9.96539	0.00000	5862.44500
9.96923	0.00000	5862.44500
9.97307	0.00000	5862.44500
9.97692	0.00000	5862.44500
9.98077	0.00000	5862.44500
9.98461	0.00000	5856.30400
9.98845	0.00000	5856.30400
9.99230	0.00000	5856.30400
9.99610	0.00000	5856.30400
9.99995	0.00000	5856.30400
