Time (s)   Thrust (N)   RPM
0.00020	2.09633	3772.74800
0.03352	2.27286	4032.83000
0.06821	2.55134	4222.95800
0.10292	2.76144	4291.54500
0.13762	2.91540	4412.48900
0.17234	3.03603	4496.97600
0.20705	3.12732	4531.62300
0.24176	3.19343	4585.47700
0.27647	3.24422	4626.03000
0.31118	3.29036	4632.43800
0.34589	3.32046	4661.21500
0.38060	3.34469	4680.23200
0.41530	3.36118	4685.33500
0.45003	3.37837	4698.72500
0.48473	3.38880	4701.96700
0.51944	3.39267	4706.16300
0.55415	3.40088	4716.01800
0.58887	3.40791	4716.34600
0.62357	3.40858	4717.23300
0.65828	3.41112	4719.23100
0.69298	3.40877	4717.23300
0.72769	3.41094	4716.67300
0.76240	3.40909	4721.36800
0.79712	3.40090	4717.23300
0.83182	3.40527	4719.55400
0.86654	3.41120	4723.18300
0.90124	3.40894	4716.49400
0.93595	3.40932	4723.18300
0.97066	3.40629	4719.35800
1.00537	3.40213	4724.25100
1.08364	3.40257	4722.43500
1.11836	3.39961	4720.41900
1.15306	3.39907	4719.55400
1.18776	3.40623	4729.26200
1.22248	3.39496	4724.34200
1.25718	3.39765	4726.38300
1.33663	3.39531	4721.36800
1.37136	3.40509	4716.49400
1.40604	3.40043	4723.50200
1.44075	3.38407	4723.18300
1.47547	3.39599	4723.28200
1.51017	3.39052	4724.25100
1.54488	3.40269	4722.54000
1.57966	3.40166	4725.31700
1.65824	3.39446	4725.63300
1.69294	3.39662	4723.59900
1.72764	3.39990	4722.75500
1.76236	3.40315	4726.38300
1.79707	3.40036	4719.67900
1.83177	3.40018	4723.50200
1.91153	3.40237	4722.75500
1.94624	3.39738	4723.28200
1.98094	3.40393	4723.50200
2.01565	3.40523	4720.41900
2.05036	3.39951	4725.63300
2.08508	3.39554	4723.50200
2.11978	3.40200	4721.48000
2.15450	3.40810	4727.44700
2.18920	3.40850	4720.62200
2.22393	3.39155	4726.38300
2.30270	3.39773	4726.69700
2.33741	3.39520	4729.26200
2.37211	3.39643	4723.59900
2.40681	3.39337	4726.69700
2.44153	3.39611	4730.37300
2.47625	3.39087	4723.50200
2.51094	3.39530	4729.26200
2.54566	3.39437	4729.31700
2.58038	3.39883	4728.51000
2.61508	3.40077	4727.44700
2.64978	3.40652	4723.28200
2.68450	3.40563	4726.69700
2.71921	3.40151	4724.65700
2.75392	3.39922	4723.50200
2.78861	3.39704	4723.50200
2.82333	3.40336	4723.59900
2.85805	3.40173	4723.50200
2.89274	3.39825	4724.56800
2.92750	3.39451	4723.50200
3.00587	3.39879	4725.31700
3.04059	3.40150	4723.50200
3.07532	3.40005	4726.45800
3.11000	3.40014	4719.55400
3.14471	3.39424	4724.34200
3.17937	3.40072	4723.50200
3.21411	3.40176	4722.75500
3.24883	3.40671	4722.54000
3.28353	3.39860	4719.55400
3.31824	3.39727	4720.62200
3.35295	3.39552	4719.67900
3.38766	3.39946	4724.25100
3.42237	3.39966	4719.35800
3.45708	3.40008	4722.43500
3.49178	3.39941	4721.36800
3.52650	3.40523	4723.28200
3.56121	3.40148	4721.36800
3.59591	3.41261	4721.36800
3.63063	3.40771	4723.28200
3.66533	3.41210	4719.55400
3.70004	3.41114	4723.28200
3.73477	3.40767	4721.36800
3.76947	3.40264	4717.41600
3.80417	3.40891	4719.35800
3.83888	3.40646	4719.55400
3.87359	3.40308	4717.41600
3.90831	3.40389	4719.03600
3.94300	3.41516	4721.36800
3.97771	3.41011	4717.55700
4.01243	3.40635	4721.36800
4.04713	3.40578	4720.62200
4.08182	3.41668	4717.55700
4.11654	3.40820	4723.18300
4.15125	3.41582	4729.26200
4.18595	3.41078	4720.41900
4.22066	3.40960	4726.06700
4.25536	3.40754	4718.29600
4.29007	3.41289	4722.75500
4.32479	3.41321	4721.36800
4.35950	3.41337	4721.16100
4.39422	3.41621	4721.36800
4.42893	3.40880	4725.31700
4.46362	3.41668	4721.16100
4.49832	3.41119	4722.43500
4.53305	3.41470	4725.63300
4.56775	3.40781	4718.81000
4.60246	3.41519	4725.31700
4.63717	3.40503	4718.29600
4.67189	3.40618	4720.62200
4.70659	3.41005	4720.30000
4.74130	3.40769	4716.49400
4.77600	3.40692	4725.31700
4.81072	3.40051	4721.36800
4.84545	3.40276	4721.16100
4.88013	3.40289	4724.25100
4.91483	3.40612	4723.28200
4.94955	3.40737	4723.50200
4.98427	3.41106	4722.43500
5.01934	3.40477	4717.55700
5.05369	3.21153	4495.15300
5.08838	2.90161	4273.03400
5.12309	2.66228	4110.57700
5.15779	2.48990	3987.93500
5.19250	2.35648	3942.39400
5.22720	2.24619	3858.22200
5.26192	2.16315	3800.46300
5.29663	2.10229	3746.48800
5.33133	2.05912	3711.08500
5.36604	2.01712	3678.84200
5.40075	1.97797	3655.31200
5.43547	1.96107	3631.69200
5.47018	1.93731	3618.83000
5.50489	1.93068	3609.51000
5.53960	1.91592	3605.76900
5.57431	1.91272	3596.53300
5.60903	1.90105	3589.15600
5.64372	1.90019	3581.92700
5.67843	1.89789	3581.76500
5.71315	1.89214	3576.08700
5.74786	1.89458	3572.46300
5.78257	1.88763	3570.56500
5.81727	1.88588	3574.19000
5.85198	1.87838	3570.39100
5.88670	1.87545	3564.85900
5.92141	1.88026	3568.48900
5.95613	1.88099	3564.85900
5.99083	1.87604	3563.13500
6.02555	1.87645	3564.85900
6.06024	1.87231	3566.76300
6.09496	1.87894	3566.58600
6.12967	1.88270	3563.13500
6.16437	1.88522	3564.85900
6.19909	1.87955	3562.95300
6.23380	1.87789	3562.95300
6.26850	1.88139	3564.85900
6.30321	1.88050	3568.48900
6.33792	1.87799	3562.95300
6.37263	1.87633	3566.76300
6.40734	1.87379	3566.76300
6.44206	1.87607	3568.48900
6.47677	1.87569	3564.85900
6.51162	1.87599	3564.85900
6.59061	1.88214	3564.85900
6.62532	1.87766	3568.48900
6.66003	1.88392	3564.85900
6.69474	1.87912	3566.76300
6.72945	1.88181	3563.13500
6.76415	1.88528	3564.85900
6.79882	1.88249	3568.48900
6.83358	1.88428	3565.03800
6.86829	1.88184	3564.85900
6.90300	1.87957	3563.13500
6.93772	1.87762	3564.85900
6.97243	1.88003	3564.85900
7.00714	1.87477	3566.58600
7.08684	1.87693	3562.95300
7.12155	1.87350	3564.85900
7.15627	1.87841	3564.85900
7.19097	1.87672	3568.48900
7.22569	1.87172	3566.58600
7.26038	1.87196	3566.76300
7.29510	1.87936	3564.85900
7.32982	1.87923	3565.03800
7.36451	1.87672	3568.48900
7.39922	1.87620	3564.85900
7.43394	1.87421	3568.48900
7.46865	1.87587	3563.13500
7.50336	1.87183	3563.13500
7.53808	1.87513	3566.76300
7.57278	1.87341	3568.48900
7.60749	1.87110	3564.85900
7.64220	1.87384	3565.03800
7.67692	1.86898	3564.85900
7.71162	1.86897	3564.85900
7.74634	1.87186	3568.48900
7.78105	1.87343	3563.13500
7.81575	1.87066	3565.03800
7.85047	1.87866	3568.48900
7.88517	1.87352	3570.39100
7.91988	1.87933	3572.12000
7.95460	1.88093	3565.03800
7.98931	1.87582	3568.48900
8.02402	1.87485	3568.48900
8.05873	1.87703	3561.22900
8.09342	1.87431	3566.76300
8.12813	1.87483	3564.85900
8.16286	1.87590	3562.95300
8.19755	1.87738	3565.03800
8.23226	1.87772	3568.48900
8.26698	1.87878	3564.85900
8.30169	1.88371	3564.85900
8.33641	1.87610	3568.66500
8.37112	1.87973	3565.03800
8.40582	1.88234	3568.48900
8.44055	1.88339	3568.48900
8.47525	1.88361	3564.85900
8.50995	1.88052	3568.48900
8.54467	1.87856	3566.76300
8.57939	1.88363	3564.85900
8.61408	1.88811	3564.85900
8.64879	1.88236	3568.66500
8.68351	1.88550	3564.85900
8.71820	1.88601	3562.95300
8.75292	1.88057	3566.58600
8.78765	1.87639	3564.85900
8.86700	1.87595	3561.04600
8.90172	1.87912	3561.22900
8.93642	1.87778	3561.22900
8.97113	1.88087	3564.68000
9.00585	1.87685	3561.04600
9.04056	1.87811	3557.59900
9.07528	1.87886	3561.22900
9.10997	1.88202	3561.22900
9.14467	1.87878	3566.58600
9.17939	1.87640	3566.58600
9.21410	1.87988	3562.95300
9.24881	1.88063	3561.22900
9.28352	1.87699	3566.58600
9.31824	1.87661	3568.48900
9.35296	1.87893	3566.58600
9.38765	1.87911	3562.95300
9.42237	1.88015	3568.48900
9.45707	1.87527	3564.85900
9.49177	1.88166	3565.03800
9.52649	1.87594	3568.66500
9.56121	1.88251	3566.76300
9.59590	1.87684	3566.76300
9.63062	1.88014	3565.21700
9.66533	1.88128	3566.76300
9.70003	1.87556	3568.48900
9.73476	1.87628	3572.12000
9.76946	1.87872	3565.03800
9.84775	1.87724	3568.66500
9.88245	1.87611	3565.03800
9.91718	1.87943	3566.76300
9.95187	1.87891	3568.48900
9.98659	1.87605	3564.85900
