Time (s)   roll (deg)   Delta
0.00039	-8.32736	11.27051
0.00460	-8.32736	11.27051
0.00880	-8.34933	11.27051
0.01298	-8.34933	11.27051
0.01716	-8.34933	11.27051
0.02146	-8.34933	11.27051
0.02574	-8.34933	11.27051
0.02993	-8.34933	11.27051
0.03411	-8.34933	11.27051
0.03829	-8.34933	11.27051
0.04248	-8.34933	11.27051
0.04666	-8.34933	11.27051
0.05084	-8.34933	11.27051
0.05515	-8.37131	11.27051
0.05935	-8.37131	11.27051
0.06353	-8.37131	11.27051
0.06772	-8.37131	11.27051
0.07190	-8.37131	11.27051
0.07608	-8.37131	11.27051
0.08026	-8.39328	11.27051
0.08467	-8.39328	11.27051
0.08888	-8.39328	11.27051
0.09305	-8.41525	11.27051
0.09723	-8.41525	11.27051
0.10150	-8.41525	11.27051
0.10568	-8.43722	11.27051
0.10985	-8.43722	11.27051
0.11411	-8.45920	11.27051
0.11835	-8.45920	11.27051
0.12254	-8.45920	11.27051
0.12671	-8.48117	11.27051
0.13089	-8.48117	11.27051
0.13507	-8.50314	11.27051
0.13924	-8.50314	11.27051
0.14349	-8.52511	11.27051
0.14775	-8.52511	11.27051
0.15194	-8.52511	11.27051
0.15612	-8.54709	11.27051
0.16029	-8.56906	11.27051
0.16447	-8.59103	11.27051
0.16864	-8.61300	11.27051
0.17282	-8.61300	11.27051
0.17710	-8.61300	11.27051
0.18129	-8.63498	11.27051
0.18547	-8.65695	11.27051
0.18964	-8.67892	11.27051
0.19383	-8.70089	11.27051
0.19801	-8.72287	11.27051
0.20230	-8.72287	11.27051
0.20674	-8.74484	11.27051
0.21100	-8.76681	11.27051
0.21522	-8.76681	11.27051
0.21942	-8.81076	11.27051
0.22361	-8.83273	11.27051
0.22780	-8.85470	11.27051
0.23199	-8.85470	11.27051
0.23624	-8.87668	11.27051
0.24050	-8.92062	11.27051
0.24469	-8.94259	11.27051
0.24888	-8.96457	11.27051
0.25306	-8.96457	11.27051
0.25724	-9.00851	11.27051
0.26143	-9.03048	11.27051
0.26575	-9.05246	11.27051
0.27003	-9.07443	11.27051
0.27424	-9.11838	11.27051
0.27842	-9.11838	11.27051
0.28261	-9.16232	11.27051
0.28679	-9.18429	11.27051
0.29099	-9.22824	11.27051
0.29518	-9.25021	11.27051
0.29947	-9.29416	11.27051
0.30377	-9.31613	11.27051
0.30795	-9.31613	11.27051
0.31214	-9.36007	11.27051
0.31632	-9.40402	11.27051
0.32050	-9.42599	11.27051
0.32469	-9.46994	11.27051
0.32911	-9.51388	11.27051
0.33331	-9.51388	11.27051
0.33750	-9.55783	11.27051
0.34168	-9.57980	11.27051
0.34587	-9.62375	11.27051
0.35005	-9.66769	11.27051
0.35423	-9.71164	11.27051
0.35851	-9.71164	11.27051
0.36281	-9.75558	11.27051
0.36703	-9.79953	11.27051
0.37121	-9.82150	11.27051
0.37542	-9.88742	11.27051
0.37962	-9.90939	11.27051
0.38381	-9.95334	11.27051
0.38825	-9.95334	11.27051
0.39255	-9.99728	11.27051
0.39676	-10.04123	11.27051
0.40095	-10.10714	11.27051
0.40525	-10.15109	11.27051
0.40945	-10.19504	11.27051
0.41364	-10.19504	11.27051
0.41783	-10.23898	11.27051
0.42214	-10.28293	11.27051
0.42634	-10.32687	11.27051
0.43054	-10.37082	11.27051
0.43473	-10.41476	11.27051
0.43892	-10.45871	11.27051
0.44311	-10.45871	11.27051
0.44730	-10.52463	11.27051
0.45168	-10.56857	11.27051
0.45589	-10.61252	11.27051
0.46008	-10.67843	11.27051
0.46427	-10.72238	11.27051
0.46847	-10.76632	11.27051
0.47266	-10.76632	11.27051
0.47685	-10.81027	11.27051
0.48116	-10.87619	11.27051
0.48542	-10.92013	11.27051
0.48961	-10.98605	11.27051
0.49381	-10.98605	11.27051
0.49799	-11.03000	11.27051
0.50218	-11.07394	11.27051
0.50646	-11.13986	11.27051
0.51072	-11.18381	11.27051
0.51499	-11.24972	11.27051
0.51920	-11.24972	11.27051
0.52339	-11.31564	11.27051
0.52757	-11.35959	11.27051
0.53176	-11.42550	11.27051
0.53594	-11.46945	11.27051
0.54012	-11.53537	11.27051
0.54441	-11.53537	11.27051
0.54861	-11.57931	11.27051
0.55280	-11.64523	11.27051
0.55698	-11.71115	11.27051
0.56117	-11.75509	11.27051
0.56535	-11.82101	11.27051
0.56954	-11.82101	11.27051
0.57393	-11.86496	11.27051
0.57813	-11.93088	11.27051
0.58232	-11.99679	11.27051
0.58650	-12.04074	11.27051
0.59069	-12.10666	11.27051
0.59488	-12.15060	11.27051
0.59910	-12.15060	11.27051
0.60338	-12.21652	11.27051
0.60773	-12.28244	11.27051
0.61192	-12.34836	11.27051
0.61611	-12.39230	11.27051
0.62029	-12.45822	11.27051
0.62448	-12.45822	11.27051
0.62866	-12.52414	11.27051
0.63291	-12.56808	11.27051
0.63718	-12.63400	11.27051
0.64138	-12.69992	11.27051
0.64556	-12.74386	11.27051
0.64975	-12.80978	11.27051
0.65393	-12.80978	11.27051
0.65811	-12.87570	11.27051
0.66230	-12.94162	11.27051
0.66659	-13.00754	11.27051
0.67080	-13.05148	11.27051
0.67498	-13.05148	11.27051
0.67918	-13.11740	11.27051
0.68336	-13.16134	11.27051
0.68755	-13.22726	11.27051
0.69173	-13.29318	11.27051
0.69612	-13.35910	11.27051
0.70032	-13.42502	11.27051
0.70451	-13.42502	11.27051
0.70880	-13.49093	11.27051
0.71298	-13.55685	11.27051
0.71716	-13.60080	11.27051
0.72134	-13.68869	11.27051
0.72561	-13.73263	11.27051
0.72986	-13.79855	11.27051
0.73405	-13.79855	11.27051
0.73823	-13.86447	11.27051
0.74242	-13.90841	11.27051
0.74660	-13.99631	11.27051
0.75079	-14.04025	11.27051
0.75504	-14.10617	11.27051
0.75928	-14.10617	11.27051
0.76347	-14.17209	11.27051
0.76765	-14.23800	11.27051
0.77184	-14.30392	11.27051
0.77602	-14.34787	11.27051
0.78020	-14.34787	11.27051
0.78439	-14.43576	11.27051
0.78868	-14.47970	11.27051
0.79287	-14.54562	11.27051
0.79707	-14.61154	11.27051
0.80125	-14.67746	11.27051
0.80543	-14.67746	11.27051
0.80972	-14.74338	11.27051
0.81390	-14.78732	11.27051
0.81828	-14.85324	11.27051
0.82250	-14.91916	11.27051
0.82668	-14.98507	11.27051
0.83086	-15.02902	11.27051
0.83505	-15.02902	11.27051
0.83918	-15.09494	11.27051
0.84337	-15.16086	11.27051
0.84762	-15.22677	11.27051
0.85187	-15.27072	11.27051
0.85606	-15.33664	11.27051
0.86025	-15.33664	11.27051
0.86443	-15.40256	11.27051
0.86861	-15.46847	11.27051
0.87280	-15.51242	11.27051
0.87704	-15.57834	11.27051
0.88131	-15.64425	11.27051
0.88550	-15.64425	11.27051
0.88969	-15.71017	11.27051
0.89387	-15.75412	11.27051
0.89806	-15.79806	11.27051
0.90224	-15.86398	11.27051
0.90642	-15.90793	11.27051
0.91082	-15.97384	11.27051
0.91501	-15.97384	11.27051
0.91919	-16.03976	11.27051
0.92337	-16.10568	11.27051
0.92756	-16.14963	11.27051
0.93174	-16.21554	11.27051
0.93592	-16.25949	11.27051
0.94031	-16.30343	11.27051
0.94452	-16.30343	11.27051
0.94870	-16.36935	11.27051
0.95289	-16.43527	11.27051
0.95707	-16.47922	11.27051
0.96125	-16.54513	11.27051
0.96544	-16.54513	11.27051
0.96971	-16.58908	11.27051
0.97396	-16.65500	11.27051
0.97815	-16.69894	11.27051
0.98234	-16.76486	11.27051
0.98652	-16.80881	11.27051
0.99070	-16.85275	11.27051
0.99489	-16.85275	11.27051
0.99915	-16.91867	11.27051
1.00342	-16.96261	11.27051
1.00762	-17.02853	11.27051
1.01190	-17.07248	11.27051
1.01608	-17.07248	11.27051
1.02026	-17.13839	11.27051
1.02445	-17.18234	11.27051
1.02863	-17.22629	11.27051
1.03291	-17.29220	11.27051
1.03711	-17.33615	11.27051
1.04130	-17.33615	11.27051
1.04548	-17.40207	11.27051
1.04966	-17.44601	11.27051
1.05384	-17.48996	11.27051
1.05803	-17.55588	11.27051
1.06238	-17.59982	11.27051
1.06658	-17.64377	11.27051
1.07077	-17.64377	11.27051
1.07495	-17.68771	11.27051
1.07916	-17.73166	11.27051
1.08335	-17.77560	11.27051
1.08753	-17.81955	11.27051
1.09178	-17.81955	11.27051
1.09603	-17.88547	11.27051
1.10022	-17.90744	11.27051
1.10440	-17.97336	11.27051
1.10858	-17.99533	11.27051
1.11287	-18.06125	11.27051
1.11705	-18.08322	11.27051
1.12131	-18.08322	11.27051
1.12560	-18.14914	11.27051
1.12981	-18.19308	11.27051
1.13400	-18.21506	11.27051
1.13818	-18.25900	11.27051
1.14237	-18.30295	11.27051
1.14655	-18.30295	11.27051
1.15073	-18.34689	11.27051
1.15502	-18.39084	11.27051
1.15920	-18.41281	11.27051
1.16339	-18.47873	11.27051
1.16757	-18.50070	11.27051
1.17175	-18.50070	11.27051
1.17594	-18.54464	11.27051
1.18012	-18.61056	11.27051
1.18449	-18.63254	11.27051
1.18870	-18.67648	11.27051
1.19288	-18.69845	11.27051
1.19707	-18.72043	11.27051
1.20125	-18.72043	11.27051
1.20544	-18.76437	11.27051
1.20962	-18.78634	11.27051
1.21402	-18.85226	11.27051
1.21827	-18.87423	11.27051
1.22250	-18.91818	11.27051
1.22670	-18.91818	11.27051
1.23088	-18.94015	11.27051
1.23507	-18.96213	11.27051
1.23926	-19.00607	11.27051
1.24351	-19.02804	11.27051
1.24786	-19.05002	11.27051
1.25207	-19.09396	11.27051
1.25628	-19.09396	11.27051
1.26047	-19.11593	11.27051
1.26466	-19.13791	11.27051
1.26884	-19.18185	11.27051
1.27302	-19.20382	11.27051
1.27737	-19.22580	11.27051
1.28159	-19.22580	11.27051
1.28579	-19.24777	11.27051
1.29000	-19.26974	11.27051
1.29419	-19.29172	11.27051
1.29838	-19.31369	11.27051
1.30257	-19.31369	11.27051
1.30724	-19.33566	11.27051
1.31144	-19.37961	11.27051
1.31573	-19.37961	11.27051
1.31992	-19.42355	11.27051
1.32413	-19.42355	11.27051
1.32832	-19.44552	11.27051
1.33251	-19.44552	11.27051
1.33679	-19.46750	11.27051
1.34106	-19.46750	11.27051
1.34526	-19.51144	11.27051
1.34944	-19.51144	11.27051
1.35363	-19.53341	11.27051
1.35781	-19.53341	11.27051
1.36200	-19.53341	11.27051
1.36625	-19.55539	11.27051
1.37052	-19.57736	11.27051
1.37473	-19.57736	11.27051
1.37891	-19.59933	11.27051
1.38311	-19.59933	11.27051
1.38729	-19.59933	11.27051
1.39149	-19.62131	11.27051
1.39568	-19.64328	11.27051
1.39998	-19.64328	11.27051
1.40418	-19.66525	11.27051
1.40837	-19.64328	11.27051
1.41255	-19.66525	11.27051
1.41684	-19.66525	11.27051
1.42102	-19.66525	11.27051
1.42522	-19.66525	11.27051
1.42966	-19.68722	11.27051
1.43387	-19.66525	11.27051
1.43806	-19.68722	11.27051
1.44224	-19.68722	11.27051
1.44643	-19.68722	11.27051
1.45061	-19.68722	11.27051
1.45480	-19.70920	11.27051
1.45907	-19.68722	11.27051
1.46334	-19.70920	11.27051
1.46753	-19.70920	11.27051
1.47172	-19.68722	11.27051
1.47590	-19.70920	11.27051
1.48009	-19.70920	11.27051
1.48427	-19.68722	11.27051
1.48852	-19.70920	11.27051
1.49280	-19.68722	11.27051
1.49699	-19.68722	11.27051
1.50119	-19.68722	11.27051
1.50537	-19.68722	11.27051
1.50956	-19.68722	11.27051
1.51374	-19.66525	11.27051
1.51803	-19.66525	11.27051
1.52233	-19.66525	11.27051
1.52655	-19.66525	11.27051
1.53073	-19.64328	11.27051
1.53492	-19.64328	11.27051
1.53911	-19.64328	11.27051
1.54329	-19.64328	11.27051
1.54748	-19.62131	11.27051
1.55189	-19.62131	11.27051
1.55609	-19.59933	11.27051
1.56028	-19.59933	11.27051
1.56447	-19.57736	11.27051
1.56865	-19.57736	11.27051
1.57283	-19.57736	11.27051
1.57702	-19.55539	11.27051
1.58127	-19.53341	11.27051
1.58554	-19.53341	11.27051
1.58974	-19.48947	11.27051
1.59392	-19.48947	11.27051
1.59811	-19.48947	11.27051
1.60230	-19.46750	11.27051
1.60649	-19.46750	11.27051
1.61074	-19.44552	11.27051
1.61502	-19.40158	11.27051
1.61931	-19.40158	11.27051
1.62352	-19.37961	11.27051
1.62771	-19.37961	11.27051
1.63190	-19.37961	11.27051
1.63609	-19.35763	11.27051
1.64027	-19.33566	11.27051
1.64456	-19.31369	11.27051
1.64876	-19.31369	11.27051
1.65295	-19.29172	11.27051
1.65713	-19.26974	11.27051
1.66132	-19.24777	11.27051
1.66550	-19.22580	11.27051
1.66968	-19.20382	11.27051
1.67408	-19.15988	11.27051
1.67828	-19.15988	11.27051
1.68247	-19.13791	11.27051
1.68666	-19.11593	11.27051
1.69084	-19.09396	11.27051
1.69503	-19.07199	11.27051
1.69919	-19.02804	11.27051
1.70346	-19.02804	11.27051
1.70772	-19.02804	11.27051
1.71191	-19.00607	11.27051
1.71609	-18.96213	11.27051
1.72038	-18.94015	11.27051
1.72458	-18.91818	11.27051
1.72877	-18.91818	11.27051
1.73302	-18.87423	11.27051
1.73729	-18.85226	11.27051
1.74149	-18.83029	11.27051
1.74568	-18.80832	11.27051
1.74987	-18.76437	11.27051
1.75405	-18.74240	11.27051
1.75823	-18.74240	11.27051
1.76242	-18.69845	11.27051
1.76671	-18.67648	11.27051
1.77090	-18.63254	11.27051
1.77510	-18.61056	11.27051
1.77928	-18.58859	11.27051
1.78347	-18.58859	11.27051
1.78765	-18.56662	11.27051
1.79183	-18.52267	11.27051
1.79623	-18.47873	11.27051
1.80043	-18.45675	11.27051
1.80463	-18.41281	11.27051
1.80881	-18.41281	11.27051
1.81300	-18.39084	11.27051
1.81718	-18.34689	11.27051
1.82147	-18.30295	11.27051
1.82576	-18.28097	11.27051
1.83002	-18.28097	11.27051
1.83421	-18.23703	11.27051
1.83840	-18.21506	11.27051
1.84260	-18.19308	11.27051
1.84678	-18.14914	11.27051
1.85097	-18.10519	11.27051
1.85523	-18.08322	11.27051
1.85950	-18.08322	11.27051
1.86369	-18.03927	11.27051
1.86788	-17.99533	11.27051
1.87207	-17.97336	11.27051
1.87625	-17.95138	11.27051
1.88043	-17.90744	11.27051
1.88461	-17.88547	11.27051
1.88890	-17.88547	11.27051
1.89310	-17.81955	11.27051
1.89729	-17.79757	11.27051
1.90147	-17.75363	11.27051
1.90565	-17.73166	11.27051
1.90984	-17.73166	11.27051
1.91402	-17.68771	11.27051
1.91838	-17.64377	11.27051
1.92275	-17.62179	11.27051
1.92694	-17.57785	11.27051
1.93114	-17.55588	11.27051
1.93532	-17.51193	11.27051
1.93950	-17.51193	11.27051
1.94369	-17.48996	11.27051
1.94795	-17.44601	11.27051
1.95220	-17.40207	11.27051
1.95639	-17.35812	11.27051
1.96058	-17.33615	11.27051
1.96476	-17.31418	11.27051
1.96895	-17.31418	11.27051
1.97313	-17.24826	11.27051
1.97741	-17.22629	11.27051
1.98169	-17.18234	11.27051
1.98590	-17.13839	11.27051
1.99009	-17.11642	11.27051
1.99427	-17.11642	11.27051
1.99846	-17.07248	11.27051
2.00265	-17.05050	11.27051
2.00685	-17.00656	11.27051
2.01115	-16.96261	11.27051
2.01536	-16.94064	11.27051
2.01954	-16.94064	11.27051
2.02385	-16.89670	11.27051
2.02803	-16.85275	11.27051
2.03222	-16.80881	11.27051
2.03641	-16.78683	11.27051
2.04079	-16.74289	11.27051
2.04499	-16.74289	11.27051
2.04918	-16.69894	11.27051
2.05336	-16.67697	11.27051
2.05754	-16.63302	11.27051
2.06173	-16.58908	11.27051
2.06592	-16.56711	11.27051
2.07020	-16.56711	11.27051
2.07444	-16.52316	11.27051
2.07863	-16.50119	11.27051
2.08282	-16.43527	11.27051
2.08701	-16.41330	11.27051
2.09119	-16.36935	11.27051
2.09537	-16.36935	11.27051
2.09962	-16.34738	11.27051
2.10389	-16.32541	11.27051
2.10809	-16.28146	11.27051
2.11227	-16.23752	11.27051
2.11646	-16.19357	11.27051
2.12064	-16.19357	11.27051
2.12495	-16.17160	11.27051
2.12913	-16.12765	11.27051
2.13343	-16.10568	11.27051
2.13764	-16.06173	11.27051
2.14182	-16.03976	11.27051
2.14601	-15.99582	11.27051
2.15019	-15.99582	11.27051
2.15438	-15.95187	11.27051
2.15856	-15.92990	11.27051
2.16294	-15.90793	11.27051
2.16715	-15.86398	11.27051
2.17135	-15.82004	11.27051
2.17554	-15.79806	11.27051
2.17972	-15.79806	11.27051
2.18391	-15.77609	11.27051
2.18809	-15.73214	11.27051
2.19236	-15.71017	11.27051
2.19662	-15.66623	11.27051
2.20081	-15.66623	11.27051
2.20499	-15.64425	11.27051
2.20918	-15.62228	11.27051
2.21336	-15.57834	11.27051
2.21755	-15.55636	11.27051
2.22180	-15.53439	11.27051
2.22622	-15.49045	11.27051
2.23042	-15.49045	11.27051
2.23461	-15.46847	11.27051
2.23879	-15.42453	11.27051
2.24298	-15.40256	11.27051
2.24717	-15.38058	11.27051
2.25136	-15.33664	11.27051
2.25565	-15.33664	11.27051
2.25986	-15.31466	11.27051
2.26405	-15.29269	11.27051
2.26824	-15.27072	11.27051
2.27242	-15.22677	11.27051
2.27660	-15.20480	11.27051
2.28079	-15.20480	11.27051
2.28519	-15.18283	11.27051
2.28940	-15.13888	11.27051
2.29359	-15.11691	11.27051
2.29778	-15.09494	11.27051
2.30196	-15.07297	11.27051
2.30615	-15.07297	11.27051
2.31034	-15.05099	11.27051
2.31461	-15.02902	11.27051
2.31887	-14.98507	11.27051
2.32313	-14.98507	11.27051
2.32743	-14.94113	11.27051
2.33161	-14.94113	11.27051
2.33580	-14.91916	11.27051
2.33998	-14.89718	11.27051
2.34425	-14.87521	11.27051
2.34853	-14.85324	11.27051
2.35273	-14.83127	11.27051
2.35692	-14.80929	11.27051
2.36110	-14.80929	11.27051
2.36529	-14.78732	11.27051
2.36947	-14.76535	11.27051
2.37366	-14.74338	11.27051
2.37795	-14.72140	11.27051
2.38215	-14.72140	11.27051
2.38633	-14.69943	11.27051
2.39055	-14.69943	11.27051
2.39474	-14.65548	11.27051
2.39893	-14.65548	11.27051
2.40313	-14.63351	11.27051
2.40753	-14.61154	11.27051
2.41173	-14.61154	11.27051
2.41592	-14.58957	11.27051
2.42010	-14.56759	11.27051
2.42431	-14.56759	11.27051
2.42860	-14.52365	11.27051
2.43279	-14.52365	11.27051
2.43707	-14.50168	11.27051
2.44132	-14.50168	11.27051
2.44552	-14.47970	11.27051
2.44970	-14.47970	11.27051
2.45389	-14.45773	11.27051
2.45807	-14.43576	11.27051
2.46226	-14.41379	11.27051
2.46651	-14.41379	11.27051
2.47078	-14.41379	11.27051
2.47498	-14.41379	11.27051
2.47918	-14.39181	11.27051
2.48336	-14.36984	11.27051
2.48755	-14.34787	11.27051
2.49173	-14.34787	11.27051
2.49593	-14.34787	11.27051
2.50023	-14.34787	11.27051
2.50444	-14.32589	11.27051
2.50863	-14.30392	11.27051
2.51283	-14.30392	11.27051
2.51701	-14.30392	11.27051
2.52120	-14.30392	11.27051
2.52540	-14.28195	11.27051
2.52992	-14.25998	11.27051
2.53412	-14.25998	11.27051
2.53832	-14.25998	11.27051
2.54250	-14.23800	11.27051
2.54669	-14.23800	11.27051
2.55088	-14.21603	11.27051
2.55507	-14.23800	11.27051
2.55934	-14.21603	11.27051
2.56360	-14.19406	11.27051
2.56779	-14.19406	11.27051
2.57197	-14.19406	11.27051
2.57616	-14.17209	11.27051
2.58034	-14.19406	11.27051
2.58453	-14.17209	11.27051
2.58877	-14.17209	11.27051
2.59304	-14.17209	11.27051
2.59723	-14.17209	11.27051
2.60142	-14.17209	11.27051
2.60561	-14.17209	11.27051
2.60979	-14.15011	11.27051
2.61399	-14.15011	11.27051
2.61817	-14.12814	11.27051
2.62246	-14.12814	11.27051
2.62668	-14.15011	11.27051
2.63097	-14.12814	11.27051
2.63517	-14.12814	11.27051
2.63935	-14.12814	11.27051
2.64355	-14.12814	11.27051
2.64774	-14.12814	11.27051
2.65215	-14.12814	11.27051
2.65636	-14.12814	11.27051
2.66055	-14.12814	11.27051
2.66473	-14.12814	11.27051
2.66892	-14.10617	11.27051
2.67310	-14.12814	11.27051
2.67728	-14.12814	11.27051
2.68155	-14.10617	11.27051
2.68581	-14.12814	11.27051
2.69000	-14.12814	11.27051
2.69419	-14.10617	11.27051
2.69838	-14.12814	11.27051
2.70256	-14.12814	11.27051
2.70674	-14.10617	11.27051
2.71100	-14.12814	11.27051
2.71536	-14.12814	11.27051
2.71958	-14.12814	11.27051
2.72380	-14.12814	11.27051
2.72801	-14.12814	11.27051
2.73231	-14.12814	11.27051
2.73650	-14.12814	11.27051
2.74069	-14.12814	11.27051
2.74504	-14.15011	11.27051
2.74926	-14.15011	11.27051
2.75345	-14.15011	11.27051
2.75766	-14.15011	11.27051
2.76186	-14.15011	11.27051
2.76605	-14.15011	11.27051
2.77024	-14.17209	11.27051
2.77498	-14.17209	11.27051
2.77920	-14.17209	11.27051
2.78340	-14.17209	11.27051
2.78758	-14.17209	11.27051
2.79179	-14.17209	11.27051
2.79598	-14.19406	11.27051
2.80017	-14.19406	11.27051
2.80444	-14.19406	11.27051
2.80872	-14.21603	11.27051
2.81292	-14.21603	11.27051
2.81712	-14.21603	11.27051
2.82130	-14.23800	11.27051
2.82549	-14.21603	11.27051
2.82967	-14.23800	11.27051
2.83406	-14.23800	11.27051
2.83834	-14.23800	11.27051
2.84254	-14.25998	11.27051
2.84673	-14.25998	11.27051
2.85092	-14.25998	11.27051
2.85512	-14.28195	11.27051
2.85930	-14.28195	11.27051
2.86349	-14.28195	11.27051
2.86779	-14.28195	11.27051
2.87199	-14.28195	11.27051
2.87618	-14.30392	11.27051
2.88037	-14.32589	11.27051
2.88455	-14.32589	11.27051
2.88873	-14.32589	11.27051
2.89292	-14.34787	11.27051
2.89732	-14.34787	11.27051
2.90153	-14.34787	11.27051
2.90572	-14.36984	11.27051
2.90990	-14.36984	11.27051
2.91409	-14.39181	11.27051
2.91828	-14.39181	11.27051
2.92246	-14.39181	11.27051
2.92673	-14.41379	11.27051
2.93100	-14.41379	11.27051
2.93530	-14.43576	11.27051
2.93949	-14.43576	11.27051
2.94367	-14.43576	11.27051
2.94786	-14.43576	11.27051
2.95204	-14.45773	11.27051
2.95629	-14.45773	11.27051
2.96057	-14.47970	11.27051
2.96477	-14.50168	11.27051
2.96895	-14.50168	11.27051
2.97314	-14.50168	11.27051
2.97733	-14.52365	11.27051
2.98151	-14.52365	11.27051
2.98571	-14.54562	11.27051
2.99002	-14.54562	11.27051
2.99423	-14.56759	11.27051
2.99842	-14.56759	11.27051
3.00261	-14.56759	11.27051
3.00679	-14.58957	11.27051
3.01098	-14.61154	11.27051
3.01518	-14.61154	11.27051
3.01960	-14.65548	11.27051
3.02383	-14.65548	11.27051
3.02803	-14.65548	11.27051
3.03222	-14.65548	11.27051
3.03651	-14.67746	11.27051
3.04069	-14.67746	11.27051
3.04488	-14.72140	11.27051
3.04914	-14.72140	11.27051
3.05340	-14.72140	11.27051
3.05760	-14.72140	11.27051
3.06179	-14.76535	11.27051
3.06597	-14.76535	11.27051
3.07016	-14.78732	11.27051
3.07434	-14.78732	11.27051
3.07859	-14.78732	11.27051
3.08287	-14.80929	11.27051
3.08708	-14.83127	11.27051
3.09126	-14.85324	11.27051
3.09545	-14.85324	11.27051
3.09963	-14.85324	11.27051
3.10382	-14.87521	11.27051
3.10800	-14.89718	11.27051
3.11230	-14.89718	11.27051
3.11650	-14.91916	11.27051
3.12069	-14.94113	11.27051
3.12488	-14.94113	11.27051
3.12906	-14.94113	11.27051
3.13325	-14.96310	11.27051
3.13754	-14.98507	11.27051
3.14194	-15.00705	11.27051
3.14615	-15.00705	11.27051
3.15033	-15.02902	11.27051
3.15452	-15.05099	11.27051
3.15871	-15.05099	11.27051
3.16289	-15.05099	11.27051
3.16709	-15.07297	11.27051
3.17136	-15.09494	11.27051
3.17563	-15.11691	11.27051
3.17982	-15.11691	11.27051
3.18401	-15.11691	11.27051
3.18820	-15.13888	11.27051
3.19238	-15.16086	11.27051
3.19657	-15.16086	11.27051
3.20085	-15.18283	11.27051
3.20513	-15.20480	11.27051
3.20933	-15.20480	11.27051
3.21352	-15.20480	11.27051
3.21774	-15.22677	11.27051
3.22194	-15.24875	11.27051
3.22613	-15.27072	11.27051
3.23032	-15.27072	11.27051
3.23463	-15.27072	11.27051
3.23895	-15.29269	11.27051
3.24314	-15.29269	11.27051
3.24733	-15.31466	11.27051
3.25152	-15.33664	11.27051
3.25571	-15.33664	11.27051
3.25989	-15.38058	11.27051
3.26430	-15.38058	11.27051
3.26852	-15.38058	11.27051
3.27271	-15.40256	11.27051
3.27691	-15.40256	11.27051
3.28110	-15.42453	11.27051
3.28529	-15.44650	11.27051
3.28950	-15.44650	11.27051
3.29383	-15.44650	11.27051
3.29811	-15.46847	11.27051
3.30231	-15.46847	11.27051
3.30651	-15.46847	11.27051
3.31070	-15.51242	11.27051
3.31489	-15.51242	11.27051
3.31909	-15.51242	11.27051
3.32335	-15.53439	11.27051
3.32765	-15.53439	11.27051
3.33186	-15.55636	11.27051
3.33605	-15.55636	11.27051
3.34035	-15.55636	11.27051
3.34454	-15.57834	11.27051
3.34873	-15.60031	11.27051
3.35291	-15.60031	11.27051
3.35721	-15.62228	11.27051
3.36142	-15.62228	11.27051
3.36560	-15.62228	11.27051
3.36979	-15.64425	11.27051
3.37397	-15.64425	11.27051
3.37816	-15.66623	11.27051
3.38234	-15.66623	11.27051
3.38678	-15.68820	11.27051
3.39100	-15.68820	11.27051
3.39520	-15.68820	11.27051
3.39939	-15.71017	11.27051
3.40358	-15.71017	11.27051
3.40777	-15.73214	11.27051
3.41196	-15.73214	11.27051
3.41625	-15.75412	11.27051
3.42054	-15.75412	11.27051
3.42475	-15.75412	11.27051
3.42894	-15.75412	11.27051
3.43313	-15.77609	11.27051
3.43732	-15.77609	11.27051
3.44162	-15.79806	11.27051
3.44589	-15.79806	11.27051
3.45018	-15.79806	11.27051
3.45439	-15.82004	11.27051
3.45858	-15.79806	11.27051
3.46277	-15.82004	11.27051
3.46696	-15.84201	11.27051
3.47116	-15.82004	11.27051
3.47534	-15.82004	11.27051
3.47964	-15.84201	11.27051
3.48383	-15.84201	11.27051
3.48804	-15.86398	11.27051
3.49223	-15.84201	11.27051
3.49642	-15.86398	11.27051
3.50060	-15.88595	11.27051
3.50479	-15.88595	11.27051
3.50920	-15.86398	11.27051
3.51341	-15.88595	11.27051
3.51759	-15.88595	11.27051
3.52178	-15.90793	11.27051
3.52596	-15.90793	11.27051
3.53015	-15.90793	11.27051
3.53433	-15.90793	11.27051
3.53860	-15.90793	11.27051
3.54298	-15.90793	11.27051
3.54718	-15.92990	11.27051
3.55136	-15.92990	11.27051
3.55555	-15.92990	11.27051
3.55973	-15.92990	11.27051
3.56392	-15.95187	11.27051
3.56963	-15.92990	11.27051
3.57394	-15.95187	11.27051
3.57815	-15.95187	11.27051
3.58236	-15.95187	11.27051
3.58656	-15.95187	11.27051
3.59078	-15.95187	11.27051
3.59499	-15.95187	11.27051
3.59927	-15.97384	11.27051
3.60356	-15.95187	11.27051
3.60777	-15.97384	11.27051
3.61197	-15.97384	11.27051
3.61616	-15.97384	11.27051
3.62035	-15.97384	11.27051
3.62454	-15.99582	11.27051
3.62873	-15.97384	11.27051
3.63303	-15.99582	11.27051
3.63724	-15.99582	11.27051
3.64144	-15.99582	11.27051
3.64574	-15.99582	11.27051
3.64993	-15.99582	11.27051
3.65412	-15.99582	11.27051
3.65831	-16.01779	11.27051
3.66268	-15.99582	11.27051
3.66690	-16.01779	11.27051
3.67110	-16.01779	11.27051
3.67530	-15.99582	11.27051
3.67948	-16.01779	11.27051
3.68368	-16.01779	11.27051
3.68786	-15.99582	11.27051
3.69217	-16.01779	11.27051
3.69644	-16.01779	11.27051
3.70064	-15.99582	11.27051
3.70483	-16.01779	11.27051
3.70902	-16.01779	11.27051
3.71322	-16.01779	11.27051
3.71740	-16.01779	11.27051
3.72165	-16.01779	11.27051
3.72593	-16.01779	11.27051
3.73013	-16.01779	11.27051
3.73432	-16.01779	11.27051
3.73852	-16.01779	11.27051
3.74271	-16.01779	11.27051
3.74701	-16.01779	11.27051
3.75118	-16.01779	11.27051
3.75548	-16.01779	11.27051
3.75968	-16.01779	11.27051
3.76387	-16.01779	11.27051
3.76805	-16.01779	11.27051
3.77224	-16.01779	11.27051
3.77642	-16.01779	11.27051
3.78061	-16.01779	11.27051
3.78501	-15.99582	11.27051
3.78921	-16.01779	11.27051
3.79340	-15.99582	11.27051
3.79759	-16.01779	11.27051
3.80177	-15.99582	11.27051
3.80596	-15.99582	11.27051
3.81014	-15.99582	11.27051
3.81442	-15.99582	11.27051
3.81868	-15.99582	11.27051
3.82287	-16.01779	11.27051
3.82707	-16.01779	11.27051
3.83125	-15.99582	11.27051
3.83544	-15.99582	11.27051
3.83962	-15.99582	11.27051
3.84387	-15.99582	11.27051
3.84825	-15.99582	11.27051
3.85244	-15.99582	11.27051
3.85662	-15.97384	11.27051
3.86081	-15.99582	11.27051
3.86499	-15.97384	11.27051
3.86918	-15.97384	11.27051
3.87336	-15.97384	11.27051
3.87766	-15.97384	11.27051
3.88186	-15.97384	11.27051
3.88604	-15.97384	11.27051
3.89023	-15.95187	11.27051
3.89442	-15.97384	11.27051
3.89861	-15.95187	11.27051
3.90279	-15.95187	11.27051
3.90719	-15.95187	11.27051
3.91140	-15.95187	11.27051
3.91558	-15.92990	11.27051
3.91977	-15.95187	11.27051
3.92396	-15.92990	11.27051
3.92814	-15.92990	11.27051
3.93232	-15.92990	11.27051
3.93658	-15.95187	11.27051
3.94084	-15.92990	11.27051
3.94503	-15.92990	11.27051
3.94932	-15.90793	11.27051
3.95350	-15.92990	11.27051
3.95769	-15.92990	11.27051
3.96187	-15.90793	11.27051
3.96612	-15.92990	11.27051
3.97040	-15.90793	11.27051
3.97460	-15.90793	11.27051
3.97879	-15.90793	11.27051
3.98297	-15.90793	11.27051
3.98718	-15.90793	11.27051
3.99137	-15.90793	11.27051
3.99557	-15.88595	11.27051
3.99987	-15.88595	11.27051
4.00408	-15.88595	11.27051
4.00828	-15.88595	11.27051
4.01246	-15.88595	11.27051
4.01665	-15.88595	11.27051
4.02083	-15.86398	11.27051
4.02502	-15.86398	11.27051
4.02944	-15.86398	11.27051
4.03365	-15.86398	11.27051
4.03785	-15.86398	11.27051
4.04203	-15.86398	11.27051
4.04622	-15.84201	11.27051
4.05050	-15.84201	11.27051
4.05469	-15.84201	11.27051
4.05895	-15.84201	11.27051
4.06323	-15.84201	11.27051
4.06742	-15.84201	11.27051
4.07161	-15.82004	11.27051
4.07580	-15.82004	11.27051
4.07998	-15.79806	11.27051
4.08416	-15.82004	11.27051
4.08841	-15.79806	11.27051
4.09269	-15.79806	11.27051
4.09688	-15.79806	11.27051
4.10107	-15.79806	11.27051
4.10525	-15.77609	11.27051
4.10944	-15.77609	11.27051
4.11362	-15.77609	11.27051
4.11781	-15.75412	11.27051
4.12210	-15.77609	11.27051
4.12631	-15.75412	11.27051
4.13050	-15.75412	11.27051
4.13468	-15.75412	11.27051
4.13887	-15.73214	11.27051
4.14306	-15.73214	11.27051
4.14724	-15.73214	11.27051
4.15177	-15.73214	11.27051
4.15596	-15.73214	11.27051
4.16015	-15.71017	11.27051
4.16434	-15.71017	11.27051
4.16852	-15.71017	11.27051
4.17270	-15.71017	11.27051
4.17689	-15.68820	11.27051
4.18117	-15.68820	11.27051
4.18542	-15.68820	11.27051
4.18961	-15.68820	11.27051
4.19380	-15.66623	11.27051
4.19798	-15.66623	11.27051
4.20217	-15.66623	11.27051
4.20635	-15.66623	11.27051
4.21060	-15.64425	11.27051
4.21487	-15.64425	11.27051
4.21914	-15.64425	11.27051
4.22333	-15.64425	11.27051
4.22752	-15.62228	11.27051
4.23171	-15.62228	11.27051
4.23589	-15.60031	11.27051
4.24008	-15.60031	11.27051
4.24437	-15.60031	11.27051
4.24857	-15.60031	11.27051
4.25286	-15.60031	11.27051
4.25705	-15.57834	11.27051
4.26124	-15.57834	11.27051
4.26542	-15.57834	11.27051
4.26960	-15.55636	11.27051
4.27398	-15.55636	11.27051
4.27819	-15.55636	11.27051
4.28238	-15.53439	11.27051
4.28660	-15.55636	11.27051
4.29080	-15.53439	11.27051
4.29499	-15.51242	11.27051
4.29918	-15.51242	11.27051
4.30346	-15.51242	11.27051
4.30771	-15.51242	11.27051
4.31191	-15.51242	11.27051
4.31610	-15.51242	11.27051
4.32028	-15.49045	11.27051
4.32447	-15.49045	11.27051
4.32865	-15.49045	11.27051
4.33291	-15.46847	11.27051
4.33716	-15.46847	11.27051
4.34137	-15.44650	11.27051
4.34568	-15.44650	11.27051
4.34997	-15.44650	11.27051
4.35435	-15.44650	11.27051
4.35858	-15.42453	11.27051
4.36309	-15.42453	11.27051
4.36747	-15.40256	11.27051
4.37171	-15.40256	11.27051
4.37592	-15.40256	11.27051
4.38013	-15.40256	11.27051
4.38433	-15.40256	11.27051
4.38855	-15.38058	11.27051
4.39276	-15.38058	11.27051
4.39722	-15.35861	11.27051
4.40144	-15.35861	11.27051
4.40563	-15.35861	11.27051
4.40983	-15.35861	11.27051
4.41401	-15.33664	11.27051
4.41820	-15.33664	11.27051
4.42239	-15.31466	11.27051
4.42673	-15.31466	11.27051
4.43102	-15.31466	11.27051
4.43521	-15.29269	11.27051
4.43940	-15.29269	11.27051
4.44360	-15.29269	11.27051
4.44788	-15.29269	11.27051
4.45209	-15.27072	11.27051
4.45653	-15.27072	11.27051
4.46083	-15.24875	11.27051
4.46504	-15.24875	11.27051
4.46923	-15.24875	11.27051
4.47342	-15.24875	11.27051
4.47761	-15.22677	11.27051
4.48179	-15.22677	11.27051
4.48597	-15.20480	11.27051
4.49029	-15.20480	11.27051
4.49450	-15.20480	11.27051
4.49869	-15.18283	11.27051
4.50288	-15.18283	11.27051
4.50708	-15.18283	11.27051
4.51127	-15.16086	11.27051
4.51545	-15.16086	11.27051
4.51986	-15.13888	11.27051
4.52407	-15.13888	11.27051
4.52827	-15.13888	11.27051
4.53246	-15.13888	11.27051
4.53665	-15.11691	11.27051
4.54083	-15.11691	11.27051
4.54501	-15.09494	11.27051
4.54928	-15.09494	11.27051
4.55354	-15.09494	11.27051
4.55783	-15.09494	11.27051
4.56202	-15.07297	11.27051
4.56620	-15.07297	11.27051
4.57039	-15.05099	11.27051
4.57457	-15.05099	11.27051
4.57882	-15.05099	11.27051
4.58311	-15.02902	11.27051
4.58732	-15.02902	11.27051
4.59151	-15.00705	11.27051
4.59569	-15.00705	11.27051
4.59988	-15.00705	11.27051
4.60407	-15.00705	11.27051
4.60825	-15.00705	11.27051
4.61254	-14.98507	11.27051
4.61674	-14.96310	11.27051
4.62093	-14.98507	11.27051
4.62511	-14.98507	11.27051
4.62930	-14.96310	11.27051
4.63348	-14.96310	11.27051
4.63766	-14.94113	11.27051
4.64206	-14.91916	11.27051
4.64627	-14.91916	11.27051
4.65045	-14.91916	11.27051
4.65464	-14.91916	11.27051
4.65893	-14.91916	11.27051
4.66312	-14.89718	11.27051
4.66731	-14.89718	11.27051
4.67158	-14.87521	11.27051
4.67583	-14.87521	11.27051
4.68003	-14.87521	11.27051
4.68421	-14.87521	11.27051
4.68839	-14.85324	11.27051
4.69258	-14.85324	11.27051
4.69676	-14.83127	11.27051
4.70101	-14.83127	11.27051
4.70528	-14.83127	11.27051
4.70947	-14.83127	11.27051
4.71366	-14.83127	11.27051
4.71785	-14.80929	11.27051
4.72203	-14.80929	11.27051
4.72621	-14.80929	11.27051
4.73040	-14.80929	11.27051
4.73469	-14.78732	11.27051
4.73890	-14.78732	11.27051
4.74309	-14.78732	11.27051
4.74728	-14.78732	11.27051
4.75147	-14.78732	11.27051
4.75565	-14.78732	11.27051
4.76071	-14.76535	11.27051
4.76501	-14.76535	11.27051
4.76922	-14.76535	11.27051
4.77347	-14.76535	11.27051
4.77768	-14.76535	11.27051
4.78187	-14.74338	11.27051
4.78606	-14.74338	11.27051
4.79026	-14.74338	11.27051
4.79469	-14.74338	11.27051
4.79891	-14.74338	11.27051
4.80312	-14.72140	11.27051
4.80731	-14.72140	11.27051
4.81150	-14.72140	11.27051
4.81569	-14.72140	11.27051
4.81988	-14.72140	11.27051
4.82416	-14.72140	11.27051
4.82842	-14.72140	11.27051
4.83260	-14.69943	11.27051
4.83676	-14.69943	11.27051
4.84093	-14.69943	11.27051
4.84510	-14.69943	11.27051
4.84926	-14.69943	11.27051
4.85350	-14.69943	11.27051
4.85774	-14.69943	11.27051
4.86201	-14.69943	11.27051
4.86618	-14.69943	11.27051
4.87034	-14.69943	11.27051
4.87451	-14.69943	11.27051
4.87867	-14.67746	11.27051
4.88284	-14.69943	11.27051
4.88712	-14.67746	11.27051
4.89131	-14.67746	11.27051
4.89548	-14.67746	11.27051
4.89964	-14.67746	11.27051
4.90381	-14.67746	11.27051
4.90798	-14.67746	11.27051
4.91214	-14.67746	11.27051
4.91641	-14.67746	11.27051
4.92061	-14.67746	11.27051
4.92478	-14.67746	11.27051
4.92894	-14.67746	11.27051
4.93313	-14.67746	11.27051
4.93731	-14.67746	11.27051
4.94150	-14.67746	11.27051
4.94577	-14.69943	11.27051
4.95001	-14.69943	11.27051
4.95421	-14.69943	11.27051
4.95840	-14.67746	11.27051
4.96269	-14.69943	11.27051
4.96688	-14.69943	11.27051
4.97107	-14.69943	11.27051
4.97533	-14.67746	11.27051
4.97959	-14.67746	11.27051
4.98379	-14.69943	11.27051
4.98799	-14.67746	11.27051
4.99218	-14.69943	11.27051
4.99636	-14.69943	11.27051
5.00055	-14.67746	11.27051
5.00473	-14.69943	11.27051
5.00903	-14.69943	11.27051
5.01324	-14.69943	11.27051
5.01742	-14.69943	11.27051
5.02161	-14.69943	11.27051
5.02579	-14.69943	11.27051
5.02998	-14.69943	11.27051
5.03416	-14.69943	11.27051
5.03860	-14.69943	11.27051
5.04280	-14.69943	11.27051
5.04699	-14.69943	11.27051
5.05118	-14.69943	11.27051
5.05536	-14.69943	11.27051
5.05955	-14.69943	11.27051
5.06383	-14.72140	11.27051
5.06809	-14.72140	11.27051
5.07236	-14.72140	11.27051
5.07656	-14.69943	11.27051
5.08075	-14.69943	11.27051
5.08497	-14.72140	11.27051
5.08918	-14.72140	11.27051
5.09338	-14.72140	11.27051
5.09931	-14.72140	11.27051
5.10364	-14.72140	11.27051
5.10785	-14.72140	11.27051
5.11205	-14.72140	11.27051
5.11624	-14.72140	11.27051
5.12043	-14.72140	11.27051
5.12462	-14.72140	11.27051
5.12888	-14.72140	11.27051
5.13316	-14.72140	11.27051
5.13737	-14.72140	11.27051
5.14156	-14.72140	11.27051
5.14574	-14.72140	11.27051
5.14993	-14.72140	11.27051
5.15411	-14.74338	11.27051
5.15830	-14.74338	11.27051
5.16259	-14.72140	11.27051
5.16690	-14.72140	11.27051
5.17110	-14.74338	11.27051
5.17528	-14.74338	11.27051
5.17947	-14.74338	11.27051
5.18365	-14.74338	11.27051
5.18783	-14.74338	11.27051
5.19226	-14.74338	11.27051
5.19646	-14.74338	11.27051
5.20065	-14.74338	11.27051
5.20484	-14.74338	11.27051
5.20902	-14.74338	11.27051
5.21321	-14.74338	11.27051
5.21739	-14.74338	11.27051
5.22166	-14.74338	11.27051
5.22592	-14.74338	11.27051
5.23014	-14.74338	11.27051
5.23433	-14.74338	11.27051
5.23851	-14.74338	11.27051
5.24270	-14.74338	11.27051
5.24689	-14.74338	11.27051
5.25118	-14.74338	11.27051
5.25547	-14.74338	11.27051
5.25967	-14.74338	11.27051
5.26386	-14.72140	11.27051
5.26815	-14.74338	11.27051
5.27234	-14.74338	11.27051
5.27653	-14.74338	11.27051
5.28071	-14.74338	11.27051
5.28503	-14.74338	11.27051
5.28925	-14.72140	11.27051
5.29344	-14.72140	11.27051
5.29763	-14.72140	11.27051
5.30181	-14.72140	11.27051
5.30600	-14.72140	11.27051
5.31018	-14.72140	11.27051
5.31461	-14.72140	11.27051
5.31883	-14.72140	11.27051
5.32302	-14.72140	11.27051
5.32719	-14.72140	11.27051
5.33138	-14.72140	11.27051
5.33556	-14.72140	11.27051
5.33975	-14.72140	11.27051
5.34403	-14.72140	11.27051
5.34829	-14.72140	11.27051
5.35262	-14.72140	11.27051
5.35685	-14.72140	11.27051
5.36105	-14.72140	11.27051
5.36523	-14.72140	11.27051
5.36953	-14.69943	11.27051
5.37381	-14.72140	11.27051
5.37810	-14.72140	11.27051
5.38230	-14.69943	11.27051
5.38649	-14.69943	11.27051
5.39069	-14.69943	11.27051
5.39488	-14.69943	11.27051
5.39907	-14.69943	11.27051
5.40326	-14.69943	11.27051
5.40756	-14.69943	11.27051
5.41177	-14.69943	11.27051
5.41595	-14.69943	11.27051
5.42014	-14.69943	11.27051
5.42433	-14.69943	11.27051
5.42852	-14.69943	11.27051
5.43270	-14.69943	11.27051
5.43713	-14.69943	11.27051
5.44134	-14.69943	11.27051
5.44553	-14.67746	11.27051
5.44971	-14.69943	11.27051
5.45390	-14.69943	11.27051
5.45809	-14.67746	11.27051
5.46230	-14.67746	11.27051
5.46658	-14.67746	11.27051
5.47096	-14.67746	11.27051
5.47516	-14.67746	11.27051
5.47935	-14.67746	11.27051
5.48353	-14.67746	11.27051
5.48772	-14.67746	11.27051
5.49191	-14.67746	11.27051
5.49618	-14.67746	11.27051
5.50046	-14.67746	11.27051
5.50466	-14.67746	11.27051
5.50885	-14.67746	11.27051
5.51303	-14.67746	11.27051
5.51722	-14.67746	11.27051
5.52140	-14.67746	11.27051
5.52559	-14.65548	11.27051
5.52988	-14.67746	11.27051
5.53409	-14.67746	11.27051
5.53828	-14.65548	11.27051
5.54247	-14.65548	11.27051
5.54666	-14.67746	11.27051
5.55084	-14.65548	11.27051
5.55503	-14.65548	11.27051
5.55943	-14.67746	11.27051
5.56364	-14.67746	11.27051
5.56783	-14.65548	11.27051
5.57212	-14.67746	11.27051
5.57631	-14.67746	11.27051
5.58049	-14.65548	11.27051
5.58468	-14.65548	11.27051
5.58895	-14.67746	11.27051
5.59321	-14.67746	11.27051
5.59741	-14.67746	11.27051
5.60159	-14.65548	11.27051
5.60578	-14.67746	11.27051
5.60996	-14.67746	11.27051
5.61415	-14.67746	11.27051
5.61841	-14.67746	11.27051
5.62269	-14.67746	11.27051
5.62689	-14.67746	11.27051
5.63109	-14.67746	11.27051
5.63528	-14.67746	11.27051
5.63946	-14.67746	11.27051
5.64365	-14.67746	11.27051
5.64784	-14.67746	11.27051
5.65214	-14.67746	11.27051
5.65635	-14.67746	11.27051
5.66054	-14.67746	11.27051
5.66472	-14.67746	11.27051
5.66891	-14.67746	11.27051
5.67319	-14.67746	11.27051
5.67738	-14.67746	11.27051
5.68177	-14.67746	11.27051
5.68598	-14.67746	11.27051
5.69017	-14.67746	11.27051
5.69435	-14.67746	11.27051
5.69854	-14.67746	11.27051
5.70272	-14.67746	11.27051
5.70691	-14.69943	11.27051
5.71119	-14.69943	11.27051
5.71544	-14.69943	11.27051
5.71963	-14.69943	11.27051
5.72382	-14.69943	11.27051
5.72801	-14.69943	11.27051
5.73220	-14.69943	11.27051
5.73638	-14.69943	11.27051
5.74063	-14.69943	11.27051
5.74491	-14.69943	11.27051
5.74910	-14.69943	11.27051
5.75329	-14.69943	11.27051
5.75748	-14.69943	11.27051
5.76167	-14.69943	11.27051
5.76585	-14.69943	11.27051
5.77004	-14.72140	11.27051
5.77445	-14.72140	11.27051
5.77865	-14.72140	11.27051
5.78284	-14.72140	11.27051
5.78702	-14.72140	11.27051
5.79119	-14.72140	11.27051
5.79537	-14.72140	11.27051
5.79956	-14.72140	11.27051
5.80395	-14.72140	11.27051
5.80816	-14.72140	11.27051
5.81235	-14.72140	11.27051
5.81653	-14.72140	11.27051
5.82072	-14.72140	11.27051
5.82490	-14.72140	11.27051
5.82909	-14.72140	11.27051
5.83338	-14.74338	11.27051
5.83764	-14.74338	11.27051
5.84183	-14.74338	11.27051
5.84602	-14.74338	11.27051
5.85020	-14.74338	11.27051
5.85439	-14.74338	11.27051
5.85858	-14.74338	11.27051
5.86283	-14.74338	11.27051
5.86712	-14.74338	11.27051
5.87133	-14.76535	11.27051
5.87562	-14.76535	11.27051
5.87981	-14.76535	11.27051
5.88399	-14.76535	11.27051
5.88818	-14.76535	11.27051
5.89236	-14.76535	11.27051
5.89665	-14.76535	11.27051
5.90085	-14.76535	11.27051
5.90504	-14.76535	11.27051
5.90923	-14.76535	11.27051
5.91341	-14.76535	11.27051
5.91760	-14.76535	11.27051
5.92178	-14.76535	11.27051
5.92617	-14.76535	11.27051
5.93038	-14.76535	11.27051
5.93458	-14.76535	11.27051
5.93877	-14.78732	11.27051
5.94296	-14.78732	11.27051
5.94715	-14.78732	11.27051
5.95133	-14.78732	11.27051
5.95561	-14.78732	11.27051
5.95987	-14.78732	11.27051
5.96406	-14.78732	11.27051
5.96825	-14.78732	11.27051
5.97243	-14.80929	11.27051
5.97672	-14.78732	11.27051
5.98090	-14.80929	11.27051
5.98516	-14.80929	11.27051
5.98944	-14.80929	11.27051
5.99363	-14.80929	11.27051
5.99782	-14.80929	11.27051
6.00200	-14.80929	11.27051
6.00619	-14.80929	11.27051
6.01038	-14.83127	11.27051
6.01456	-14.83127	11.27051
6.01886	-14.83127	11.27051
6.02309	-14.83127	11.27051
6.02728	-14.85324	11.27051
6.03146	-14.83127	11.27051
6.03565	-14.83127	11.27051
6.03984	-14.85324	11.27051
6.04402	-14.85324	11.27051
6.04842	-14.85324	11.27051
6.05263	-14.85324	11.27051
6.05682	-14.85324	11.27051
6.06101	-14.85324	11.27051
6.06520	-14.85324	11.27051
6.06938	-14.87521	11.27051
6.07357	-14.85324	11.27051
6.07796	-14.87521	11.27051
6.08221	-14.87521	11.27051
6.08640	-14.89718	11.27051
6.09059	-14.89718	11.27051
6.09477	-14.87521	11.27051
6.09896	-14.89718	11.27051
6.10315	-14.89718	11.27051
6.10741	-14.89718	11.27051
6.11169	-14.89718	11.27051
6.11589	-14.89718	11.27051
6.12009	-14.89718	11.27051
6.12427	-14.91916	11.27051
6.12846	-14.91916	11.27051
6.13264	-14.91916	11.27051
6.13683	-14.91916	11.27051
6.14112	-14.91916	11.27051
6.14532	-14.94113	11.27051
6.14951	-14.94113	11.27051
6.15370	-14.91916	11.27051
6.15788	-14.94113	11.27051
6.16207	-14.94113	11.27051
6.16625	-14.94113	11.27051
6.17064	-14.96310	11.27051
6.17485	-14.96310	11.27051
6.17916	-14.96310	11.27051
6.18334	-14.96310	11.27051
6.18753	-14.96310	11.27051
6.19171	-14.96310	11.27051
6.19590	-14.96310	11.27051
6.20016	-14.98507	11.27051
6.20442	-14.98507	11.27051
6.20861	-14.98507	11.27051
6.21280	-15.00705	11.27051
6.21698	-15.00705	11.27051
6.22117	-14.98507	11.27051
6.22536	-15.00705	11.27051
6.22963	-15.00705	11.27051
6.23392	-15.00705	11.27051
6.23812	-15.00705	11.27051
6.24231	-15.02902	11.27051
6.24650	-15.02902	11.27051
6.25068	-15.02902	11.27051
6.25486	-15.02902	11.27051
6.25906	-15.02902	11.27051
6.26336	-15.05099	11.27051
6.26756	-15.05099	11.27051
6.27175	-15.05099	11.27051
6.27593	-15.05099	11.27051
6.28022	-15.05099	11.27051
6.28441	-15.07297	11.27051
6.28861	-15.07297	11.27051
6.29305	-15.07297	11.27051
6.29726	-15.07297	11.27051
6.30146	-15.07297	11.27051
6.30565	-15.09494	11.27051
6.30983	-15.09494	11.27051
6.31402	-15.09494	11.27051
6.31820	-15.09494	11.27051
6.32248	-15.09494	11.27051
6.32675	-15.09494	11.27051
6.33095	-15.11691	11.27051
6.33515	-15.11691	11.27051
6.33934	-15.11691	11.27051
6.34353	-15.11691	11.27051
6.34771	-15.13888	11.27051
6.35198	-15.13888	11.27051
6.35626	-15.11691	11.27051
6.36046	-15.13888	11.27051
6.36465	-15.13888	11.27051
6.36883	-15.13888	11.27051
6.37302	-15.16086	11.27051
6.37721	-15.16086	11.27051
6.38150	-15.16086	11.27051
6.38579	-15.16086	11.27051
6.39003	-15.16086	11.27051
6.39422	-15.16086	11.27051
6.39840	-15.16086	11.27051
6.40259	-15.16086	11.27051
6.40678	-15.18283	11.27051
6.41096	-15.18283	11.27051
6.41541	-15.18283	11.27051
6.41961	-15.18283	11.27051
6.42381	-15.18283	11.27051
6.42800	-15.18283	11.27051
6.43219	-15.18283	11.27051
6.43638	-15.20480	11.27051
6.44057	-15.20480	11.27051
6.44485	-15.20480	11.27051
6.44910	-15.20480	11.27051
6.45331	-15.20480	11.27051
6.45750	-15.20480	11.27051
6.46168	-15.22677	11.27051
6.46587	-15.20480	11.27051
6.47007	-15.22677	11.27051
6.47434	-15.22677	11.27051
6.47864	-15.22677	11.27051
6.48296	-15.22677	11.27051
6.48716	-15.22677	11.27051
6.49134	-15.24875	11.27051
6.49553	-15.24875	11.27051
6.49972	-15.24875	11.27051
6.50390	-15.24875	11.27051
6.50820	-15.24875	11.27051
6.51240	-15.24875	11.27051
6.51659	-15.24875	11.27051
6.52078	-15.24875	11.27051
6.52497	-15.27072	11.27051
6.52916	-15.24875	11.27051
6.53334	-15.27072	11.27051
6.53776	-15.27072	11.27051
6.54198	-15.27072	11.27051
6.54616	-15.27072	11.27051
6.55035	-15.27072	11.27051
6.55454	-15.27072	11.27051
6.55873	-15.27072	11.27051
6.56291	-15.27072	11.27051
6.56720	-15.27072	11.27051
6.57147	-15.27072	11.27051
6.57566	-15.29269	11.27051
6.57985	-15.29269	11.27051
6.58413	-15.29269	11.27051
6.58832	-15.29269	11.27051
6.59250	-15.29269	11.27051
6.59676	-15.29269	11.27051
6.60103	-15.29269	11.27051
6.60524	-15.29269	11.27051
6.60942	-15.29269	11.27051
6.61361	-15.29269	11.27051
6.61779	-15.29269	11.27051
6.62198	-15.29269	11.27051
6.62616	-15.29269	11.27051
6.63046	-15.29269	11.27051
6.63466	-15.31466	11.27051
6.63885	-15.29269	11.27051
6.64304	-15.29269	11.27051
6.64719	-15.31466	11.27051
6.65137	-15.31466	11.27051
6.65556	-15.31466	11.27051
6.65996	-15.31466	11.27051
6.66417	-15.31466	11.27051
6.66836	-15.31466	11.27051
6.67254	-15.31466	11.27051
6.67673	-15.31466	11.27051
6.68091	-15.31466	11.27051
6.68520	-15.31466	11.27051
6.68947	-15.31466	11.27051
6.69373	-15.31466	11.27051
6.69792	-15.31466	11.27051
6.70211	-15.31466	11.27051
6.70630	-15.31466	11.27051
6.71048	-15.31466	11.27051
6.71466	-15.31466	11.27051
6.71892	-15.31466	11.27051
6.72321	-15.31466	11.27051
6.72741	-15.31466	11.27051
6.73159	-15.31466	11.27051
6.73578	-15.31466	11.27051
6.73997	-15.31466	11.27051
6.74415	-15.31466	11.27051
6.74834	-15.31466	11.27051
6.75263	-15.33664	11.27051
6.75686	-15.31466	11.27051
6.76105	-15.31466	11.27051
6.76524	-15.31466	11.27051
6.76942	-15.31466	11.27051
6.77361	-15.31466	11.27051
6.77779	-15.33664	11.27051
6.78222	-15.31466	11.27051
6.78655	-15.31466	11.27051
6.79073	-15.31466	11.27051
6.79492	-15.33664	11.27051
6.79911	-15.31466	11.27051
6.80330	-15.31466	11.27051
6.80748	-15.31466	11.27051
6.81175	-15.31466	11.27051
6.81600	-15.31466	11.27051
6.82020	-15.31466	11.27051
6.82438	-15.31466	11.27051
6.82857	-15.31466	11.27051
6.83275	-15.31466	11.27051
6.83695	-15.33664	11.27051
6.84121	-15.31466	11.27051
6.84549	-15.31466	11.27051
6.84968	-15.31466	11.27051
6.85387	-15.31466	11.27051
6.85806	-15.31466	11.27051
6.86224	-15.33664	11.27051
6.86643	-15.31466	11.27051
6.87061	-15.31466	11.27051
6.87491	-15.31466	11.27051
6.87912	-15.31466	11.27051
6.88331	-15.31466	11.27051
6.88760	-15.31466	11.27051
6.89179	-15.31466	11.27051
6.89598	-15.31466	11.27051
6.90016	-15.31466	11.27051
6.90457	-15.31466	11.27051
6.90879	-15.31466	11.27051
6.91297	-15.31466	11.27051
6.91716	-15.31466	11.27051
6.92135	-15.31466	11.27051
6.92553	-15.31466	11.27051
6.92972	-15.31466	11.27051
6.93399	-15.31466	11.27051
6.93826	-15.31466	11.27051
6.94246	-15.31466	11.27051
6.94664	-15.31466	11.27051
6.95083	-15.31466	11.27051
6.95501	-15.31466	11.27051
6.95919	-15.31466	11.27051
6.96345	-15.31466	11.27051
6.96773	-15.31466	11.27051
6.97194	-15.31466	11.27051
6.97613	-15.31466	11.27051
6.98031	-15.31466	11.27051
6.98450	-15.31466	11.27051
6.98879	-15.31466	11.27051
6.99297	-15.31466	11.27051
6.99727	-15.31466	11.27051
7.00148	-15.31466	11.27051
7.00567	-15.31466	11.27051
7.00986	-15.31466	11.27051
7.01405	-15.31466	11.27051
7.01823	-15.31466	11.27051
7.02242	-15.31466	11.27051
7.02682	-15.31466	11.27051
7.03103	-15.31466	11.27051
7.03519	-15.31466	11.27051
7.03938	-15.31466	11.27051
7.04357	-15.31466	11.27051
7.04776	-15.31466	11.27051
7.05194	-15.31466	11.27051
7.05622	-15.31466	11.27051
7.06048	-15.31466	11.27051
7.06467	-15.31466	11.27051
7.06886	-15.31466	11.27051
7.07304	-15.31466	11.27051
7.07723	-15.31466	11.27051
7.08142	-15.31466	11.27051
7.08567	-15.31466	11.27051
7.09005	-15.31466	11.27051
7.09425	-15.31466	11.27051
7.09844	-15.31466	11.27051
7.10262	-15.31466	11.27051
7.10681	-15.31466	11.27051
7.11100	-15.31466	11.27051
7.11519	-15.31466	11.27051
7.11949	-15.31466	11.27051
7.12370	-15.31466	11.27051
7.12789	-15.31466	11.27051
7.13208	-15.31466	11.27051
7.13626	-15.31466	11.27051
7.14045	-15.31466	11.27051
7.14463	-15.31466	11.27051
7.14904	-15.31466	11.27051
7.15325	-15.33664	11.27051
7.15744	-15.33664	11.27051
7.16163	-15.31466	11.27051
7.16581	-15.33664	11.27051
7.17000	-15.33664	11.27051
7.17418	-15.33664	11.27051
7.17845	-15.33664	11.27051
7.18271	-15.33664	11.27051
7.18691	-15.33664	11.27051
7.19121	-15.33664	11.27051
7.19540	-15.33664	11.27051
7.19958	-15.33664	11.27051
7.20377	-15.35861	11.27051
7.20802	-15.35861	11.27051
7.21230	-15.35861	11.27051
7.21649	-15.35861	11.27051
7.22069	-15.35861	11.27051
7.22488	-15.35861	11.27051
7.22906	-15.35861	11.27051
7.23325	-15.35861	11.27051
7.23744	-15.35861	11.27051
7.24174	-15.35861	11.27051
7.24594	-15.35861	11.27051
7.25013	-15.35861	11.27051
7.25432	-15.35861	11.27051
7.25850	-15.35861	11.27051
7.26269	-15.38058	11.27051
7.26687	-15.35861	11.27051
7.27130	-15.38058	11.27051
7.27550	-15.38058	11.27051
7.27969	-15.38058	11.27051
7.28388	-15.38058	11.27051
7.28807	-15.38058	11.27051
7.29236	-15.38058	11.27051
7.29654	-15.38058	11.27051
7.30081	-15.38058	11.27051
7.30506	-15.38058	11.27051
7.30925	-15.40256	11.27051
7.31344	-15.38058	11.27051
7.31763	-15.38058	11.27051
7.32181	-15.40256	11.27051
7.32600	-15.40256	11.27051
7.33025	-15.40256	11.27051
7.33453	-15.40256	11.27051
7.33874	-15.40256	11.27051
7.34294	-15.40256	11.27051
7.34713	-15.40256	11.27051
7.35132	-15.40256	11.27051
7.35550	-15.40256	11.27051
7.35969	-15.40256	11.27051
7.36399	-15.40256	11.27051
7.36819	-15.40256	11.27051
7.37238	-15.40256	11.27051
7.37657	-15.42453	11.27051
7.38075	-15.42453	11.27051
7.38494	-15.42453	11.27051
7.38912	-15.42453	11.27051
7.39366	-15.42453	11.27051
7.39787	-15.42453	11.27051
7.40205	-15.42453	11.27051
7.40624	-15.42453	11.27051
7.41043	-15.42453	11.27051
7.41461	-15.42453	11.27051
7.41880	-15.42453	11.27051
7.42308	-15.42453	11.27051
7.42734	-15.42453	11.27051
7.43153	-15.42453	11.27051
7.43571	-15.42453	11.27051
7.43990	-15.44650	11.27051
7.44409	-15.44650	11.27051
7.44827	-15.44650	11.27051
7.45253	-15.44650	11.27051
7.45680	-15.44650	11.27051
7.46100	-15.44650	11.27051
7.46519	-15.44650	11.27051
7.46938	-15.44650	11.27051
7.47357	-15.46847	11.27051
7.47775	-15.44650	11.27051
7.48194	-15.44650	11.27051
7.48626	-15.44650	11.27051
7.49046	-15.46847	11.27051
7.49475	-15.44650	11.27051
7.49894	-15.46847	11.27051
7.50313	-15.46847	11.27051
7.50732	-15.46847	11.27051
7.51150	-15.46847	11.27051
7.51593	-15.46847	11.27051
7.52014	-15.46847	11.27051
7.52433	-15.46847	11.27051
7.52852	-15.46847	11.27051
7.53270	-15.46847	11.27051
7.53689	-15.46847	11.27051
7.54107	-15.46847	11.27051
7.54536	-15.46847	11.27051
7.54962	-15.46847	11.27051
7.55382	-15.46847	11.27051
7.55801	-15.46847	11.27051
7.56219	-15.46847	11.27051
7.56638	-15.46847	11.27051
7.57056	-15.46847	11.27051
7.57483	-15.46847	11.27051
7.57912	-15.46847	11.27051
7.58332	-15.46847	11.27051
7.58751	-15.46847	11.27051
7.59169	-15.46847	11.27051
7.59598	-15.46847	11.27051
7.60017	-15.46847	11.27051
7.60435	-15.46847	11.27051
7.60865	-15.46847	11.27051
7.61285	-15.46847	11.27051
7.61704	-15.46847	11.27051
7.62122	-15.46847	11.27051
7.62541	-15.46847	11.27051
7.62959	-15.46847	11.27051
7.63378	-15.44650	11.27051
7.63817	-15.44650	11.27051
7.64238	-15.44650	11.27051
7.64657	-15.44650	11.27051
7.65076	-15.44650	11.27051
7.65495	-15.44650	11.27051
7.65914	-15.44650	11.27051
7.66332	-15.44650	11.27051
7.66759	-15.44650	11.27051
7.67185	-15.44650	11.27051
7.67604	-15.44650	11.27051
7.68023	-15.44650	11.27051
7.68441	-15.44650	11.27051
7.68860	-15.44650	11.27051
7.69278	-15.44650	11.27051
7.69714	-15.44650	11.27051
7.70141	-15.44650	11.27051
7.70562	-15.44650	11.27051
7.70980	-15.42453	11.27051
7.71399	-15.44650	11.27051
7.71817	-15.44650	11.27051
7.72236	-15.42453	11.27051
7.72654	-15.44650	11.27051
7.73083	-15.42453	11.27051
7.73504	-15.42453	11.27051
7.73919	-15.42453	11.27051
7.74338	-15.40256	11.27051
7.74756	-15.40256	11.27051
7.75175	-15.42453	11.27051
7.75593	-15.40256	11.27051
7.76032	-15.40256	11.27051
7.76453	-15.40256	11.27051
7.76872	-15.40256	11.27051
7.77291	-15.40256	11.27051
7.77709	-15.40256	11.27051
7.78128	-15.40256	11.27051
7.78546	-15.40256	11.27051
7.78973	-15.38058	11.27051
7.79398	-15.38058	11.27051
7.79828	-15.38058	11.27051
7.80247	-15.38058	11.27051
7.80666	-15.38058	11.27051
7.81085	-15.38058	11.27051
7.81503	-15.35861	11.27051
7.81926	-15.38058	11.27051
7.82354	-15.35861	11.27051
7.82774	-15.35861	11.27051
7.83194	-15.35861	11.27051
7.83614	-15.35861	11.27051
7.84033	-15.35861	11.27051
7.84451	-15.35861	11.27051
7.84871	-15.33664	11.27051
7.85302	-15.33664	11.27051
7.85722	-15.33664	11.27051
7.86141	-15.33664	11.27051
7.86559	-15.33664	11.27051
7.86978	-15.31466	11.27051
7.87397	-15.31466	11.27051
7.87815	-15.31466	11.27051
7.88255	-15.31466	11.27051
7.88676	-15.31466	11.27051
7.89095	-15.29269	11.27051
7.89515	-15.29269	11.27051
7.89944	-15.29269	11.27051
7.90362	-15.29269	11.27051
7.90781	-15.29269	11.27051
7.91208	-15.29269	11.27051
7.91634	-15.27072	11.27051
7.92054	-15.27072	11.27051
7.92473	-15.27072	11.27051
7.92891	-15.24875	11.27051
7.93310	-15.24875	11.27051
7.93728	-15.24875	11.27051
7.94154	-15.27072	11.27051
7.94581	-15.22677	11.27051
7.95002	-15.22677	11.27051
7.95421	-15.22677	11.27051
7.95840	-15.22677	11.27051
7.96258	-15.22677	11.27051
7.96677	-15.22677	11.27051
7.97095	-15.20480	11.27051
7.97527	-15.20480	11.27051
7.97947	-15.20480	11.27051
7.98366	-15.20480	11.27051
7.98785	-15.18283	11.27051
7.99203	-15.18283	11.27051
7.99622	-15.18283	11.27051
8.00051	-15.16086	11.27051
8.00491	-15.16086	11.27051
8.00912	-15.16086	11.27051
8.01331	-15.16086	11.27051
8.01749	-15.13888	11.27051
8.02168	-15.13888	11.27051
8.02587	-15.13888	11.27051
8.03005	-15.11691	11.27051
8.03438	-15.11691	11.27051
8.03866	-15.11691	11.27051
8.04286	-15.11691	11.27051
8.04706	-15.09494	11.27051
8.05125	-15.09494	11.27051
8.05544	-15.09494	11.27051
8.05962	-15.07297	11.27051
8.06388	-15.07297	11.27051
8.06816	-15.07297	11.27051
8.07236	-15.07297	11.27051
8.07655	-15.05099	11.27051
8.08074	-15.05099	11.27051
8.08492	-15.02902	11.27051
8.08911	-15.02902	11.27051
8.09329	-15.02902	11.27051
8.09758	-15.02902	11.27051
8.10189	-15.00705	11.27051
8.10608	-15.00705	11.27051
8.11027	-15.00705	11.27051
8.11445	-14.98507	11.27051
8.11864	-14.98507	11.27051
8.12282	-14.98507	11.27051
8.12724	-14.98507	11.27051
8.13144	-14.96310	11.27051
8.13563	-14.96310	11.27051
8.13982	-14.94113	11.27051
8.14401	-14.94113	11.27051
8.14819	-14.94113	11.27051
8.15239	-14.94113	11.27051
8.15666	-14.91916	11.27051
8.16091	-14.91916	11.27051
8.16511	-14.91916	11.27051
8.16929	-14.89718	11.27051
8.17348	-14.89718	11.27051
8.17767	-14.89718	11.27051
8.18185	-14.89718	11.27051
8.18611	-14.87521	11.27051
8.19039	-14.85324	11.27051
8.19459	-14.85324	11.27051
8.19878	-14.85324	11.27051
8.20309	-14.85324	11.27051
8.20727	-14.83127	11.27051
8.21146	-14.83127	11.27051
8.21564	-14.80929	11.27051
8.21994	-14.80929	11.27051
8.22414	-14.80929	11.27051
8.22833	-14.78732	11.27051
8.23252	-14.78732	11.27051
8.23671	-14.78732	11.27051
8.24089	-14.76535	11.27051
8.24508	-14.76535	11.27051
8.24950	-14.76535	11.27051
8.25373	-14.74338	11.27051
8.25792	-14.74338	11.27051
8.26210	-14.74338	11.27051
8.26629	-14.72140	11.27051
8.27048	-14.72140	11.27051
8.27466	-14.69943	11.27051
8.27894	-14.69943	11.27051
8.28321	-14.69943	11.27051
8.28742	-14.69943	11.27051
8.29161	-14.69943	11.27051
8.29580	-14.67746	11.27051
8.29998	-14.67746	11.27051
8.30427	-14.67746	11.27051
8.30853	-14.65548	11.27051
8.31283	-14.63351	11.27051
8.31704	-14.63351	11.27051
8.32124	-14.63351	11.27051
8.32543	-14.63351	11.27051
8.32962	-14.63351	11.27051
8.33381	-14.61154	11.27051
8.33800	-14.61154	11.27051
8.34231	-14.58957	11.27051
8.34653	-14.58957	11.27051
8.35072	-14.58957	11.27051
8.35491	-14.58957	11.27051
8.35910	-14.58957	11.27051
8.36332	-14.56759	11.27051
8.36751	-14.56759	11.27051
8.37194	-14.54562	11.27051
8.37616	-14.54562	11.27051
8.38035	-14.54562	11.27051
8.38453	-14.54562	11.27051
8.38872	-14.54562	11.27051
8.39291	-14.52365	11.27051
8.39709	-14.52365	11.27051
8.40137	-14.52365	11.27051
8.40574	-14.50168	11.27051
8.40993	-14.50168	11.27051
8.41412	-14.50168	11.27051
8.41830	-14.50168	11.27051
8.42249	-14.50168	11.27051
8.42667	-14.47970	11.27051
8.43092	-14.47970	11.27051
8.43522	-14.47970	11.27051
8.43943	-14.47970	11.27051
8.44362	-14.47970	11.27051
8.44780	-14.47970	11.27051
8.45199	-14.45773	11.27051
8.45618	-14.45773	11.27051
8.46036	-14.45773	11.27051
8.46466	-14.45773	11.27051
8.46886	-14.45773	11.27051
8.47305	-14.43576	11.27051
8.47724	-14.43576	11.27051
8.48142	-14.43576	11.27051
8.48561	-14.43576	11.27051
8.48979	-14.43576	11.27051
8.49420	-14.43576	11.27051
8.49841	-14.43576	11.27051
8.50262	-14.43576	11.27051
8.50691	-14.43576	11.27051
8.51111	-14.43576	11.27051
8.51529	-14.41379	11.27051
8.51948	-14.41379	11.27051
8.52375	-14.41379	11.27051
8.52801	-14.41379	11.27051
8.53220	-14.41379	11.27051
8.53639	-14.41379	11.27051
8.54058	-14.41379	11.27051
8.54476	-14.41379	11.27051
8.54895	-14.41379	11.27051
8.55321	-14.41379	11.27051
8.55749	-14.41379	11.27051
8.56169	-14.41379	11.27051
8.56587	-14.41379	11.27051
8.57006	-14.41379	11.27051
8.57425	-14.41379	11.27051
8.57843	-14.41379	11.27051
8.58262	-14.41379	11.27051
8.58691	-14.41379	11.27051
8.59113	-14.41379	11.27051
8.59532	-14.41379	11.27051
8.59951	-14.41379	11.27051
8.60370	-14.41379	11.27051
8.60799	-14.41379	11.27051
8.61217	-14.41379	11.27051
8.61660	-14.41379	11.27051
8.62081	-14.41379	11.27051
8.62500	-14.41379	11.27051
8.62918	-14.41379	11.27051
8.63337	-14.41379	11.27051
8.63755	-14.43576	11.27051
8.64174	-14.43576	11.27051
8.64601	-14.43576	11.27051
8.65027	-14.43576	11.27051
8.65446	-14.43576	11.27051
8.65866	-14.43576	11.27051
8.66285	-14.43576	11.27051
8.66704	-14.43576	11.27051
8.67119	-14.45773	11.27051
8.67546	-14.45773	11.27051
8.67974	-14.45773	11.27051
8.68393	-14.45773	11.27051
8.68812	-14.45773	11.27051
8.69231	-14.45773	11.27051
8.69649	-14.45773	11.27051
8.70068	-14.47970	11.27051
8.70486	-14.47970	11.27051
8.70926	-14.47970	11.27051
8.71346	-14.47970	11.27051
8.71765	-14.47970	11.27051
8.72184	-14.47970	11.27051
8.72602	-14.50168	11.27051
8.73021	-14.50168	11.27051
8.73439	-14.50168	11.27051
8.73879	-14.52365	11.27051
8.74300	-14.54562	11.27051
8.74720	-14.54562	11.27051
8.75139	-14.54562	11.27051
8.75558	-14.54562	11.27051
8.75976	-14.54562	11.27051
8.76395	-14.54562	11.27051
8.76822	-14.56759	11.27051
8.77248	-14.56759	11.27051
8.77667	-14.56759	11.27051
8.78086	-14.58957	11.27051
8.78505	-14.58957	11.27051
8.78923	-14.58957	11.27051
8.79342	-14.61154	11.27051
8.79768	-14.61154	11.27051
8.80195	-14.63351	11.27051
8.80616	-14.63351	11.27051
8.81045	-14.63351	11.27051
8.81463	-14.63351	11.27051
8.81882	-14.65548	11.27051
8.82300	-14.65548	11.27051
8.82719	-14.65548	11.27051
8.83152	-14.67746	11.27051
8.83573	-14.67746	11.27051
8.83993	-14.69943	11.27051
8.84412	-14.69943	11.27051
8.84831	-14.72140	11.27051
8.85250	-14.72140	11.27051
8.85669	-14.72140	11.27051
8.86112	-14.72140	11.27051
8.86532	-14.74338	11.27051
8.86952	-14.74338	11.27051
8.87371	-14.76535	11.27051
8.87789	-14.76535	11.27051
8.88207	-14.76535	11.27051
8.88626	-14.76535	11.27051
8.89053	-14.78732	11.27051
8.89479	-14.78732	11.27051
8.89899	-14.80929	11.27051
8.90319	-14.80929	11.27051
8.90738	-14.80929	11.27051
8.91170	-14.83127	11.27051
8.91590	-14.83127	11.27051
8.92015	-14.83127	11.27051
8.92444	-14.85324	11.27051
8.92864	-14.87521	11.27051
8.93283	-14.87521	11.27051
8.93703	-14.87521	11.27051
8.94122	-14.87521	11.27051
8.94540	-14.89718	11.27051
8.94959	-14.89718	11.27051
8.95389	-14.89718	11.27051
8.95809	-14.91916	11.27051
8.96229	-14.91916	11.27051
8.96648	-14.91916	11.27051
8.97067	-14.94113	11.27051
8.97485	-14.94113	11.27051
8.97904	-14.96310	11.27051
8.98339	-14.96310	11.27051
8.98760	-14.96310	11.27051
8.99179	-14.96310	11.27051
8.99598	-14.98507	11.27051
9.00017	-14.98507	11.27051
9.00435	-14.98507	11.27051
9.00854	-15.00705	11.27051
9.01292	-15.00705	11.27051
9.01718	-15.00705	11.27051
9.02137	-15.02902	11.27051
9.02556	-15.02902	11.27051
9.02975	-15.02902	11.27051
9.03396	-15.05099	11.27051
9.03815	-15.05099	11.27051
9.04241	-15.05099	11.27051
9.04669	-15.05099	11.27051
9.05089	-15.07297	11.27051
9.05510	-15.09494	11.27051
9.05929	-15.07297	11.27051
9.06348	-15.09494	11.27051
9.06766	-15.09494	11.27051
9.07185	-15.09494	11.27051
9.07615	-15.11691	11.27051
9.08036	-15.11691	11.27051
9.08457	-15.13888	11.27051
9.08878	-15.13888	11.27051
9.09298	-15.13888	11.27051
9.09718	-15.13888	11.27051
9.10137	-15.16086	11.27051
9.10585	-15.16086	11.27051
9.11008	-15.16086	11.27051
9.11438	-15.16086	11.27051
9.11858	-15.18283	11.27051
9.12277	-15.18283	11.27051
9.12696	-15.18283	11.27051
9.13115	-15.18283	11.27051
9.13544	-15.20480	11.27051
9.13970	-15.20480	11.27051
9.14390	-15.20480	11.27051
9.14809	-15.20480	11.27051
9.15228	-15.22677	11.27051
9.15647	-15.22677	11.27051
9.16065	-15.24875	11.27051
9.16492	-15.24875	11.27051
9.16922	-15.24875	11.27051
9.17342	-15.27072	11.27051
9.17761	-15.27072	11.27051
9.18179	-15.27072	11.27051
9.18598	-15.27072	11.27051
9.19016	-15.27072	11.27051
9.19435	-15.29269	11.27051
9.19864	-15.29269	11.27051
9.20285	-15.29269	11.27051
9.20704	-15.31466	11.27051
9.21119	-15.31466	11.27051
9.21548	-15.31466	11.27051
9.21967	-15.33664	11.27051
9.22385	-15.33664	11.27051
9.22827	-15.33664	11.27051
9.23248	-15.33664	11.27051
9.23668	-15.35861	11.27051
9.24087	-15.35861	11.27051
9.24505	-15.38058	11.27051
9.24924	-15.38058	11.27051
9.25342	-15.38058	11.27051
9.25769	-15.38058	11.27051
9.26195	-15.38058	11.27051
9.26616	-15.40256	11.27051
9.27035	-15.40256	11.27051
9.27454	-15.40256	11.27051
9.27872	-15.40256	11.27051
9.28290	-15.42453	11.27051
9.28719	-15.42453	11.27051
9.29147	-15.42453	11.27051
9.29567	-15.44650	11.27051
9.29986	-15.44650	11.27051
9.30404	-15.44650	11.27051
9.30823	-15.44650	11.27051
9.31241	-15.44650	11.27051
9.31670	-15.46847	11.27051
9.32100	-15.46847	11.27051
9.32520	-15.49045	11.27051
9.32939	-15.49045	11.27051
9.33358	-15.49045	11.27051
9.33777	-15.49045	11.27051
9.34195	-15.51242	11.27051
9.34614	-15.49045	11.27051
9.35053	-15.51242	11.27051
9.35475	-15.51242	11.27051
9.35894	-15.51242	11.27051
9.36313	-15.53439	11.27051
9.36732	-15.53439	11.27051
9.37150	-15.53439	11.27051
9.37569	-15.53439	11.27051
9.37996	-15.53439	11.27051
9.38421	-15.55636	11.27051
9.38841	-15.55636	11.27051
9.39260	-15.55636	11.27051
9.39679	-15.55636	11.27051
9.40097	-15.55636	11.27051
9.40516	-15.57834	11.27051
9.40942	-15.57834	11.27051
9.41369	-15.57834	11.27051
9.41800	-15.57834	11.27051
9.42218	-15.57834	11.27051
9.42637	-15.57834	11.27051
9.43055	-15.57834	11.27051
9.43474	-15.60031	11.27051
9.43892	-15.60031	11.27051
9.44323	-15.60031	11.27051
9.44744	-15.60031	11.27051
9.45162	-15.60031	11.27051
9.45581	-15.60031	11.27051
9.46000	-15.62228	11.27051
9.46418	-15.62228	11.27051
9.46838	-15.62228	11.27051
9.47279	-15.62228	11.27051
9.47700	-15.62228	11.27051
9.48118	-15.64425	11.27051
9.48537	-15.62228	11.27051
9.48956	-15.62228	11.27051
9.49375	-15.64425	11.27051
9.49793	-15.62228	11.27051
9.50221	-15.64425	11.27051
9.50647	-15.64425	11.27051
9.51067	-15.64425	11.27051
9.51485	-15.64425	11.27051
9.51916	-15.64425	11.27051
9.52334	-15.64425	11.27051
9.52753	-15.64425	11.27051
9.53180	-15.64425	11.27051
9.53608	-15.64425	11.27051
9.54028	-15.64425	11.27051
9.54446	-15.64425	11.27051
9.54865	-15.64425	11.27051
9.55283	-15.64425	11.27051
9.55702	-15.64425	11.27051
9.56120	-15.64425	11.27051
9.56550	-15.64425	11.27051
9.56972	-15.64425	11.27051
9.57390	-15.64425	11.27051
9.57809	-15.64425	11.27051
9.58227	-15.64425	11.27051
9.58646	-15.64425	11.27051
9.59064	-15.64425	11.27051
9.59504	-15.64425	11.27051
9.59921	-15.64425	11.27051
9.60340	-15.64425	11.27051
9.60759	-15.64425	11.27051
9.61177	-15.62228	11.27051
9.61596	-15.62228	11.27051
9.62024	-15.62228	11.27051
9.62451	-15.62228	11.27051
9.62877	-15.62228	11.27051
9.63297	-15.62228	11.27051
9.63716	-15.62228	11.27051
9.64134	-15.62228	11.27051
9.64553	-15.62228	11.27051
9.64971	-15.62228	11.27051
9.65397	-15.60031	11.27051
9.65825	-15.60031	11.27051
9.66245	-15.60031	11.27051
9.66663	-15.57834	11.27051
9.67082	-15.60031	11.27051
9.67501	-15.60031	11.27051
9.67919	-15.57834	11.27051
9.68337	-15.57834	11.27051
9.68767	-15.57834	11.27051
9.69188	-15.57834	11.27051
9.69606	-15.57834	11.27051
9.70025	-15.55636	11.27051
9.70444	-15.55636	11.27051
9.70862	-15.55636	11.27051
9.71281	-15.55636	11.27051
9.71720	-15.55636	11.27051
9.72151	-15.53439	11.27051
9.72570	-15.53439	11.27051
9.72988	-15.53439	11.27051
9.73407	-15.53439	11.27051
9.73825	-15.51242	11.27051
9.74244	-15.51242	11.27051
9.74671	-15.51242	11.27051
9.75097	-15.51242	11.27051
9.75518	-15.51242	11.27051
9.75937	-15.51242	11.27051
9.76355	-15.49045	11.27051
9.76774	-15.49045	11.27051
9.77192	-15.49045	11.27051
9.77618	-15.46847	11.27051
9.78046	-15.46847	11.27051
9.78465	-15.46847	11.27051
9.78884	-15.46847	11.27051
9.79303	-15.46847	11.27051
9.79721	-15.44650	11.27051
9.80140	-15.44650	11.27051
9.80558	-15.44650	11.27051
9.80987	-15.44650	11.27051
9.81408	-15.44650	11.27051
9.81827	-15.42453	11.27051
9.82256	-15.42453	11.27051
9.82674	-15.42453	11.27051
9.83093	-15.42453	11.27051
9.83512	-15.40256	11.27051
9.83953	-15.40256	11.27051
9.84373	-15.40256	11.27051
9.84792	-15.40256	11.27051
9.85212	-15.38058	11.27051
9.85630	-15.38058	11.27051
9.86049	-15.38058	11.27051
9.86467	-15.38058	11.27051
9.86895	-15.35861	11.27051
9.87321	-15.35861	11.27051
9.87741	-15.33664	11.27051
9.88160	-15.33664	11.27051
9.88578	-15.33664	11.27051
9.88997	-15.33664	11.27051
9.89416	-15.33664	11.27051
9.89841	-15.33664	11.27051
9.90269	-15.31466	11.27051
9.90689	-15.31466	11.27051
9.91109	-15.31466	11.27051
9.91528	-15.31466	11.27051
9.91947	-15.31466	11.27051
9.92375	-15.29269	11.27051
9.92794	-15.29269	11.27051
9.93224	-15.29269	11.27051
9.93645	-15.29269	11.27051
9.94064	-15.27072	11.27051
9.94483	-15.27072	11.27051
9.94901	-15.27072	11.27051
9.95320	-15.24875	11.27051
9.95738	-15.24875	11.27051
9.96177	-15.24875	11.27051
9.96598	-15.24875	11.27051
9.97017	-15.24875	11.27051
9.97437	-15.22677	11.27051
9.97855	-15.20480	11.27051
9.98274	-15.22677	11.27051
9.98692	-15.20480	11.27051
9.99121	-15.20480	11.27051
9.99547	-15.20480	11.27051
9.99966	-15.20480	11.27051
10.00385	-15.18283	11.27051
10.00804	-15.18283	11.27051
10.01222	-15.18283	11.27051
10.01641	-15.18283	11.27051
10.02067	-15.18283	11.27051
10.02505	-15.16086	11.27051
10.02924	-15.16086	11.27051
10.03342	-15.13888	11.27051
10.03761	-15.13888	11.27051
10.04180	-15.13888	11.27051
10.04599	-15.13888	11.27051
10.05017	-15.13888	11.27051
10.05447	-15.13888	11.27051
10.05867	-15.11691	11.27051
10.06286	-15.11691	11.27051
10.06704	-15.09494	11.27051
10.07119	-15.09494	11.27051
10.07538	-15.09494	11.27051
10.07957	-15.09494	11.27051
10.08397	-15.09494	11.27051
10.08819	-15.07297	11.27051
10.09237	-15.07297	11.27051
10.09656	-15.07297	11.27051
10.10074	-15.05099	11.27051
10.10493	-15.05099	11.27051
10.10911	-15.05099	11.27051
10.11338	-15.05099	11.27051
10.11763	-15.02902	11.27051
10.12183	-15.02902	11.27051
10.12613	-15.02902	11.27051
10.13031	-15.00705	11.27051
10.13450	-15.00705	11.27051
10.13868	-15.00705	11.27051
10.14294	-14.98507	11.27051
10.14723	-14.98507	11.27051
10.15143	-14.98507	11.27051
10.15562	-14.96310	11.27051
10.15980	-14.96310	11.27051
10.16399	-14.96310	11.27051
10.16817	-14.96310	11.27051
10.17236	-14.94113	11.27051
10.17665	-14.94113	11.27051
10.18085	-14.94113	11.27051
10.18504	-14.91916	11.27051
10.18922	-14.91916	11.27051
10.19341	-14.91916	11.27051
10.19759	-14.91916	11.27051
10.20178	-14.91916	11.27051
10.20618	-14.89718	11.27051
10.21039	-14.89718	11.27051
10.21457	-14.87521	11.27051
10.21888	-14.87521	11.27051
10.22314	-14.87521	11.27051
10.22746	-14.87521	11.27051
10.23166	-14.87521	11.27051
10.23594	-14.85324	11.27051
10.24022	-14.85324	11.27051
10.24441	-14.85324	11.27051
10.24860	-14.83127	11.27051
10.25279	-14.83127	11.27051
10.25698	-14.83127	11.27051
10.26116	-14.83127	11.27051
10.26543	-14.83127	11.27051
10.26972	-14.80929	11.27051
10.27393	-14.80929	11.27051
10.27814	-14.80929	11.27051
10.28233	-14.78732	11.27051
10.28652	-14.78732	11.27051
10.29072	-14.78732	11.27051
10.29491	-14.78732	11.27051
10.29923	-14.76535	11.27051
10.30346	-14.76535	11.27051
10.30765	-14.76535	11.27051
10.31184	-14.74338	11.27051
10.31602	-14.76535	11.27051
10.32021	-14.74338	11.27051
10.32440	-14.74338	11.27051
10.32891	-14.74338	11.27051
10.33312	-14.74338	11.27051
10.33731	-14.74338	11.27051
10.34150	-14.72140	11.27051
10.34568	-14.72140	11.27051
10.34987	-14.72140	11.27051
10.35405	-14.69943	11.27051
10.35833	-14.69943	11.27051
10.36259	-14.69943	11.27051
10.36679	-14.69943	11.27051
10.37098	-14.69943	11.27051
10.37517	-14.69943	11.27051
10.37935	-14.67746	11.27051
10.38354	-14.67746	11.27051
10.38780	-14.67746	11.27051
10.39209	-14.65548	11.27051
10.39628	-14.65548	11.27051
10.40047	-14.65548	11.27051
10.40466	-14.65548	11.27051
10.40884	-14.65548	11.27051
10.41303	-14.65548	11.27051
10.41721	-14.65548	11.27051
10.42151	-14.63351	11.27051
10.42572	-14.63351	11.27051
10.43001	-14.63351	11.27051
10.43419	-14.63351	11.27051
10.43838	-14.63351	11.27051
10.44257	-14.61154	11.27051
10.44675	-14.61154	11.27051
10.45118	-14.61154	11.27051
10.45539	-14.61154	11.27051
10.45958	-14.61154	11.27051
10.46377	-14.61154	11.27051
10.46795	-14.61154	11.27051
10.47214	-14.58957	11.27051
10.47632	-14.58957	11.27051
10.48060	-14.58957	11.27051
10.48485	-14.58957	11.27051
10.48905	-14.58957	11.27051
10.49324	-14.58957	11.27051
10.49743	-14.56759	11.27051
10.50161	-14.56759	11.27051
10.50580	-14.56759	11.27051
10.51005	-14.56759	11.27051
10.51433	-14.56759	11.27051
10.51853	-14.56759	11.27051
10.52272	-14.56759	11.27051
10.52691	-14.56759	11.27051
10.53121	-14.56759	11.27051
10.53540	-14.56759	11.27051
10.53958	-14.56759	11.27051
10.54387	-14.54562	11.27051
10.54808	-14.54562	11.27051
10.55227	-14.54562	11.27051
10.55646	-14.54562	11.27051
10.56065	-14.54562	11.27051
10.56483	-14.54562	11.27051
10.56902	-14.54562	11.27051
10.57342	-14.54562	11.27051
10.57763	-14.54562	11.27051
10.58182	-14.54562	11.27051
10.58601	-14.52365	11.27051
10.59020	-14.54562	11.27051
10.59438	-14.54562	11.27051
10.59857	-14.54562	11.27051
10.60284	-14.52365	11.27051
10.60711	-14.54562	11.27051
10.61130	-14.54562	11.27051
10.61549	-14.52365	11.27051
10.61968	-14.52365	11.27051
10.62386	-14.54562	11.27051
10.62805	-14.54562	11.27051
10.63242	-14.52365	11.27051
10.63671	-14.52365	11.27051
10.64091	-14.52365	11.27051
10.64510	-14.52365	11.27051
10.64929	-14.52365	11.27051
10.65347	-14.52365	11.27051
10.65766	-14.54562	11.27051
10.66184	-14.54562	11.27051
10.66614	-14.54562	11.27051
10.67035	-14.54562	11.27051
10.67454	-14.52365	11.27051
10.67873	-14.52365	11.27051
10.68292	-14.54562	11.27051
10.68711	-14.54562	11.27051
10.69130	-14.54562	11.27051
10.69570	-14.54562	11.27051
10.69990	-14.54562	11.27051
10.70409	-14.54562	11.27051
10.70828	-14.54562	11.27051
10.71247	-14.54562	11.27051
10.71665	-14.54562	11.27051
10.72084	-14.56759	11.27051
10.72510	-14.54562	11.27051
10.72936	-14.56759	11.27051
10.73365	-14.56759	11.27051
10.73785	-14.56759	11.27051
10.74203	-14.56759	11.27051
10.74622	-14.56759	11.27051
10.75040	-14.56759	11.27051
10.75466	-14.56759	11.27051
10.75896	-14.56759	11.27051
10.76317	-14.58957	11.27051
10.76736	-14.58957	11.27051
10.77154	-14.58957	11.27051
10.77573	-14.58957	11.27051
10.77992	-14.58957	11.27051
10.78410	-14.58957	11.27051
10.78841	-14.61154	11.27051
10.79261	-14.61154	11.27051
10.79680	-14.61154	11.27051
10.80098	-14.61154	11.27051
10.80517	-14.61154	11.27051
10.80936	-14.61154	11.27051
10.81354	-14.63351	11.27051
10.81794	-14.63351	11.27051
10.82216	-14.63351	11.27051
10.82635	-14.63351	11.27051
10.83053	-14.63351	11.27051
10.83482	-14.65548	11.27051
10.83901	-14.65548	11.27051
10.84319	-14.65548	11.27051
10.84746	-14.65548	11.27051
10.85172	-14.65548	11.27051
10.85592	-14.67746	11.27051
10.86011	-14.67746	11.27051
10.86430	-14.67746	11.27051
10.86849	-14.67746	11.27051
10.87267	-14.67746	11.27051
10.87692	-14.69943	11.27051
10.88120	-14.69943	11.27051
10.88541	-14.69943	11.27051
10.88960	-14.69943	11.27051
10.89378	-14.72140	11.27051
10.89797	-14.72140	11.27051
10.90215	-14.72140	11.27051
10.90633	-14.74338	11.27051
10.91063	-14.74338	11.27051
10.91483	-14.74338	11.27051
10.91902	-14.76535	11.27051
10.92319	-14.74338	11.27051
10.92738	-14.76535	11.27051
10.93156	-14.76535	11.27051
10.93586	-14.78732	11.27051
10.94040	-14.78732	11.27051
10.94464	-14.78732	11.27051
10.94884	-14.78732	11.27051
10.95304	-14.78732	11.27051
10.95723	-14.80929	11.27051
10.96142	-14.80929	11.27051
10.96561	-14.83127	11.27051
10.96988	-14.83127	11.27051
10.97415	-14.83127	11.27051
10.97836	-14.85324	11.27051
10.98255	-14.85324	11.27051
10.98674	-14.85324	11.27051
10.99093	-14.87521	11.27051
10.99513	-14.87521	11.27051
10.99940	-14.87521	11.27051
11.00369	-14.89718	11.27051
11.00789	-14.89718	11.27051
11.01208	-14.91916	11.27051
11.01626	-14.91916	11.27051
11.02045	-14.91916	11.27051
11.02464	-14.94113	11.27051
11.02882	-14.94113	11.27051
11.03311	-14.94113	11.27051
11.03743	-14.96310	11.27051
11.04162	-14.96310	11.27051
11.04581	-14.96310	11.27051
11.04999	-14.96310	11.27051
11.05417	-14.98507	11.27051
11.05836	-14.98507	11.27051
11.06275	-15.00705	11.27051
11.06696	-15.00705	11.27051
11.07116	-15.00705	11.27051
11.07535	-15.02902	11.27051
11.07954	-15.02902	11.27051
11.08372	-15.05099	11.27051
11.08791	-15.05099	11.27051
11.09218	-15.07297	11.27051
11.09643	-15.07297	11.27051
11.10063	-15.07297	11.27051
11.10481	-15.09494	11.27051
11.10900	-15.09494	11.27051
11.11318	-15.11691	11.27051
11.11737	-15.11691	11.27051
11.12162	-15.13888	11.27051
11.12589	-15.13888	11.27051
11.13009	-15.13888	11.27051
11.13428	-15.16086	11.27051
11.13857	-15.16086	11.27051
11.14275	-15.18283	11.27051
11.14694	-15.18283	11.27051
11.15113	-15.18283	11.27051
11.15543	-15.20480	11.27051
11.15963	-15.20480	11.27051
11.16382	-15.22677	11.27051
11.16801	-15.24875	11.27051
11.17219	-15.24875	11.27051
11.17638	-15.24875	11.27051
11.18056	-15.24875	11.27051
11.18495	-15.27072	11.27051
11.18916	-15.29269	11.27051
11.19335	-15.29269	11.27051
11.19753	-15.31466	11.27051
11.20172	-15.33664	11.27051
11.20590	-15.33664	11.27051
11.21009	-15.33664	11.27051
11.21435	-15.35861	11.27051
11.21861	-15.35861	11.27051
11.22280	-15.38058	11.27051
11.22699	-15.38058	11.27051
11.23119	-15.40256	11.27051
11.23538	-15.40256	11.27051
11.23967	-15.42453	11.27051
11.24394	-15.44650	11.27051
11.24822	-15.44650	11.27051
11.25243	-15.46847	11.27051
11.25662	-15.46847	11.27051
11.26080	-15.46847	11.27051
11.26499	-15.49045	11.27051
11.26917	-15.51242	11.27051
11.27336	-15.51242	11.27051
11.27765	-15.53439	11.27051
11.28185	-15.53439	11.27051
11.28608	-15.55636	11.27051
11.29027	-15.55636	11.27051
11.29446	-15.57834	11.27051
11.29865	-15.60031	11.27051
11.30284	-15.60031	11.27051
11.30726	-15.62228	11.27051
11.31147	-15.62228	11.27051
11.31566	-15.62228	11.27051
11.31985	-15.64425	11.27051
11.32404	-15.64425	11.27051
11.32822	-15.66623	11.27051
11.33241	-15.66623	11.27051
11.33668	-15.68820	11.27051
11.34105	-15.68820	11.27051
11.34524	-15.71017	11.27051
11.34946	-15.73214	11.27051
11.35378	-15.73214	11.27051
11.35799	-15.75412	11.27051
11.36218	-15.75412	11.27051
11.36646	-15.75412	11.27051
11.37075	-15.79806	11.27051
11.37495	-15.79806	11.27051
11.37915	-15.79806	11.27051
11.38333	-15.82004	11.27051
11.38752	-15.82004	11.27051
11.39172	-15.82004	11.27051
11.39591	-15.84201	11.27051
11.40020	-15.86398	11.27051
11.40441	-15.86398	11.27051
11.40860	-15.88595	11.27051
11.41278	-15.90793	11.27051
11.41697	-15.90793	11.27051
11.42115	-15.90793	11.27051
11.42534	-15.90793	11.27051
11.42973	-15.92990	11.27051
11.43394	-15.95187	11.27051
11.43813	-15.95187	11.27051
11.44243	-15.97384	11.27051
11.44663	-15.97384	11.27051
11.45082	-15.99582	11.27051
11.45502	-15.99582	11.27051
11.45929	-15.99582	11.27051
11.46356	-16.01779	11.27051
11.46775	-16.03976	11.27051
11.47194	-16.03976	11.27051
11.47613	-16.03976	11.27051
11.48031	-16.06173	11.27051
11.48450	-16.06173	11.27051
11.48876	-16.08371	11.27051
11.49304	-16.10568	11.27051
11.49724	-16.10568	11.27051
11.50143	-16.10568	11.27051
11.50562	-16.12765	11.27051
11.50980	-16.12765	11.27051
11.51399	-16.12765	11.27051
11.51817	-16.14963	11.27051
11.52246	-16.14963	11.27051
11.52666	-16.17160	11.27051
11.53085	-16.17160	11.27051
11.53504	-16.19357	11.27051
11.53919	-16.19357	11.27051
11.54348	-16.21554	11.27051
11.54766	-16.21554	11.27051
11.55206	-16.21554	11.27051
11.55627	-16.23752	11.27051
11.56046	-16.23752	11.27051
11.56464	-16.23752	11.27051
11.56883	-16.25949	11.27051
11.57301	-16.25949	11.27051
11.57720	-16.25949	11.27051
11.58147	-16.28146	11.27051
11.58574	-16.28146	11.27051
11.58993	-16.30343	11.27051
11.59411	-16.32541	11.27051
11.59830	-16.32541	11.27051
11.60249	-16.32541	11.27051
11.60667	-16.32541	11.27051
11.61092	-16.32541	11.27051
11.61521	-16.34738	11.27051
11.61941	-16.36935	11.27051
11.62360	-16.36935	11.27051
11.62779	-16.36935	11.27051
11.63197	-16.39132	11.27051
11.63615	-16.39132	11.27051
11.64034	-16.41330	11.27051
11.64473	-16.41330	11.27051
11.64893	-16.41330	11.27051
11.65312	-16.43527	11.27051
11.65730	-16.43527	11.27051
11.66149	-16.43527	11.27051
11.66567	-16.45724	11.27051
11.66986	-16.45724	11.27051
11.67424	-16.45724	11.27051
11.67845	-16.45724	11.27051
11.68264	-16.47922	11.27051
11.68683	-16.47922	11.27051
11.69101	-16.50119	11.27051
11.69519	-16.50119	11.27051
11.69937	-16.50119	11.27051
11.70364	-16.52316	11.27051
11.70789	-16.52316	11.27051
11.71209	-16.52316	11.27051
11.71627	-16.52316	11.27051
11.72046	-16.54513	11.27051
11.72464	-16.54513	11.27051
11.72882	-16.54513	11.27051
11.73307	-16.56711	11.27051
11.73735	-16.56711	11.27051
11.74154	-16.56711	11.27051
11.74583	-16.56711	11.27051
11.75001	-16.58908	11.27051
11.75420	-16.58908	11.27051
11.75838	-16.58908	11.27051
11.76257	-16.61105	11.27051
11.76688	-16.58908	11.27051
11.77110	-16.61105	11.27051
11.77529	-16.61105	11.27051
11.77947	-16.61105	11.27051
11.78366	-16.61105	11.27051
11.78785	-16.61105	11.27051
11.79203	-16.63302	11.27051
11.79643	-16.63302	11.27051
11.80063	-16.63302	11.27051
11.80482	-16.65500	11.27051
11.80901	-16.65500	11.27051
11.81319	-16.65500	11.27051
11.81738	-16.65500	11.27051
11.82156	-16.65500	11.27051
11.82583	-16.65500	11.27051
11.83010	-16.67697	11.27051
11.83430	-16.67697	11.27051
11.83849	-16.67697	11.27051
11.84267	-16.65500	11.27051
11.84696	-16.67697	11.27051
11.85116	-16.67697	11.27051
11.85541	-16.67697	11.27051
11.85970	-16.67697	11.27051
11.86389	-16.67697	11.27051
11.86808	-16.67697	11.27051
11.87227	-16.67697	11.27051
11.87645	-16.67697	11.27051
11.88064	-16.69894	11.27051
11.88482	-16.67697	11.27051
11.88912	-16.67697	11.27051
11.89332	-16.69894	11.27051
11.89750	-16.67697	11.27051
11.90169	-16.67697	11.27051
11.90587	-16.69894	11.27051
11.91006	-16.67697	11.27051
11.91424	-16.69894	11.27051
11.91862	-16.69894	11.27051
11.92283	-16.67697	11.27051
11.92702	-16.67697	11.27051
11.93119	-16.67697	11.27051
11.93538	-16.67697	11.27051
11.93957	-16.67697	11.27051
11.94375	-16.67697	11.27051
11.94814	-16.67697	11.27051
11.95240	-16.67697	11.27051
11.95659	-16.67697	11.27051
11.96077	-16.65500	11.27051
11.96498	-16.67697	11.27051
11.96917	-16.67697	11.27051
11.97337	-16.65500	11.27051
11.97763	-16.65500	11.27051
11.98190	-16.65500	11.27051
11.98611	-16.65500	11.27051
11.99031	-16.63302	11.27051
11.99449	-16.63302	11.27051
11.99868	-16.63302	11.27051
12.00286	-16.63302	11.27051
12.00706	-16.61105	11.27051
12.01136	-16.63302	11.27051
12.01555	-16.61105	11.27051
12.01974	-16.61105	11.27051
12.02393	-16.61105	11.27051
12.02812	-16.61105	11.27051
12.03230	-16.58908	11.27051
12.03649	-16.58908	11.27051
12.04088	-16.56711	11.27051
12.04509	-16.56711	11.27051
12.04938	-16.56711	11.27051
12.05356	-16.54513	11.27051
12.05775	-16.54513	11.27051
12.06193	-16.54513	11.27051
12.06612	-16.52316	11.27051
12.07039	-16.52316	11.27051
12.07466	-16.52316	11.27051
12.07885	-16.50119	11.27051
12.08304	-16.50119	11.27051
12.08719	-16.50119	11.27051
12.09138	-16.47922	11.27051
12.09556	-16.47922	11.27051
12.09982	-16.47922	11.27051
12.10410	-16.45724	11.27051
12.10830	-16.45724	11.27051
12.11249	-16.43527	11.27051
12.11668	-16.43527	11.27051
12.12086	-16.43527	11.27051
12.12505	-16.43527	11.27051
12.12923	-16.41330	11.27051
12.13352	-16.41330	11.27051
12.13773	-16.39132	11.27051
12.14192	-16.36935	11.27051
12.14611	-16.36935	11.27051
12.15039	-16.36935	11.27051
12.15458	-16.34738	11.27051
12.15876	-16.34738	11.27051
12.16317	-16.32541	11.27051
12.16737	-16.32541	11.27051
12.17156	-16.30343	11.27051
12.17575	-16.28146	11.27051
12.17994	-16.28146	11.27051
12.18412	-16.28146	11.27051
12.18831	-16.25949	11.27051
12.19257	-16.23752	11.27051
12.19683	-16.23752	11.27051
12.20102	-16.21554	11.27051
12.20521	-16.21554	11.27051
12.20939	-16.21554	11.27051
12.21358	-16.19357	11.27051
12.21776	-16.19357	11.27051
12.22200	-16.17160	11.27051
12.22628	-16.17160	11.27051
12.23048	-16.17160	11.27051
12.23467	-16.14963	11.27051
12.23886	-16.12765	11.27051
12.24304	-16.10568	11.27051
12.24719	-16.10568	11.27051
12.25148	-16.08371	11.27051
12.25577	-16.06173	11.27051
12.25996	-16.06173	11.27051
12.26415	-16.06173	11.27051
12.26834	-16.03976	11.27051
12.27252	-16.01779	11.27051
12.27671	-16.01779	11.27051
12.28089	-15.99582	11.27051
12.28527	-15.99582	11.27051
12.28954	-15.97384	11.27051
12.29376	-15.95187	11.27051
12.29795	-15.95187	11.27051
12.30214	-15.92990	11.27051
12.30633	-15.90793	11.27051
12.31053	-15.90793	11.27051
12.31485	-15.90793	11.27051
12.31914	-15.88595	11.27051
12.32334	-15.86398	11.27051
12.32753	-15.84201	11.27051
12.33172	-15.84201	11.27051
12.33591	-15.84201	11.27051
12.34011	-15.82004	11.27051
12.34436	-15.79806	11.27051
12.34865	-15.79806	11.27051
12.35297	-15.77609	11.27051
12.35716	-15.75412	11.27051
12.36135	-15.75412	11.27051
12.36555	-15.73214	11.27051
12.36975	-15.73214	11.27051
12.37395	-15.71017	11.27051
12.37826	-15.68820	11.27051
12.38246	-15.68820	11.27051
12.38666	-15.64425	11.27051
12.39086	-15.64425	11.27051
12.39506	-15.64425	11.27051
12.39925	-15.64425	11.27051
12.40344	-15.62228	11.27051
12.40788	-15.60031	11.27051
12.41209	-15.57834	11.27051
12.41628	-15.57834	11.27051
12.42046	-15.57834	11.27051
12.42465	-15.55636	11.27051
12.42883	-15.55636	11.27051
12.43302	-15.53439	11.27051
12.43729	-15.51242	11.27051
12.44154	-15.49045	11.27051
12.44576	-15.49045	11.27051
12.44995	-15.49045	11.27051
12.45424	-15.46847	11.27051
12.45843	-15.46847	11.27051
12.46261	-15.44650	11.27051
12.46688	-15.44650	11.27051
12.47117	-15.42453	11.27051
12.47537	-15.42453	11.27051
12.47956	-15.40256	11.27051
12.48375	-15.38058	11.27051
12.48796	-15.38058	11.27051
12.49216	-15.38058	11.27051
12.49635	-15.38058	11.27051
12.50071	-15.35861	11.27051
12.50494	-15.35861	11.27051
12.50915	-15.33664	11.27051
12.51334	-15.31466	11.27051
12.51753	-15.31466	11.27051
12.52172	-15.29269	11.27051
12.52591	-15.29269	11.27051
12.53046	-15.29269	11.27051
12.53469	-15.27072	11.27051
12.53889	-15.27072	11.27051
12.54309	-15.24875	11.27051
12.54727	-15.24875	11.27051
12.55146	-15.24875	11.27051
12.55575	-15.22677	11.27051
12.56002	-15.20480	11.27051
12.56429	-15.20480	11.27051
12.56849	-15.18283	11.27051
12.57268	-15.18283	11.27051
12.57686	-15.18283	11.27051
12.58105	-15.16086	11.27051
12.58523	-15.16086	11.27051
12.58949	-15.13888	11.27051
12.59377	-15.13888	11.27051
12.59799	-15.13888	11.27051
12.60219	-15.13888	11.27051
12.60638	-15.11691	11.27051
12.61057	-15.11691	11.27051
12.61475	-15.09494	11.27051
12.61894	-15.09494	11.27051
12.62326	-15.07297	11.27051
12.62746	-15.07297	11.27051
12.63164	-15.07297	11.27051
12.63583	-15.07297	11.27051
12.64002	-15.05099	11.27051
12.64420	-15.05099	11.27051
12.64839	-15.02902	11.27051
12.65279	-15.02902	11.27051
12.65710	-15.02902	11.27051
12.66129	-15.02902	11.27051
12.66547	-15.00705	11.27051
12.66966	-15.00705	11.27051
12.67384	-14.98507	11.27051
12.67803	-14.98507	11.27051
12.68230	-14.96310	11.27051
12.68656	-14.96310	11.27051
12.69075	-14.98507	11.27051
12.69494	-14.96310	11.27051
12.69914	-14.96310	11.27051
12.70332	-14.96310	11.27051
12.70751	-14.96310	11.27051
12.71176	-14.94113	11.27051
12.71604	-14.94113	11.27051
12.72024	-14.94113	11.27051
12.72442	-14.91916	11.27051
12.72861	-14.91916	11.27051
12.73279	-14.91916	11.27051
12.73697	-14.91916	11.27051
12.74116	-14.91916	11.27051
12.74545	-14.91916	11.27051
12.74965	-14.89718	11.27051
12.75384	-14.89718	11.27051
12.75813	-14.87521	11.27051
12.76231	-14.89718	11.27051
12.76650	-14.89718	11.27051
12.77068	-14.87521	11.27051
12.77507	-14.87521	11.27051
12.77928	-14.87521	11.27051
12.78346	-14.87521	11.27051
12.78765	-14.87521	11.27051
12.79183	-14.87521	11.27051
12.79602	-14.87521	11.27051
12.80021	-14.87521	11.27051
12.80448	-14.85324	11.27051
12.80873	-14.85324	11.27051
12.81292	-14.85324	11.27051
12.81710	-14.85324	11.27051
12.82129	-14.85324	11.27051
12.82547	-14.85324	11.27051
12.82966	-14.85324	11.27051
12.83389	-14.85324	11.27051
12.83817	-14.85324	11.27051
12.84236	-14.85324	11.27051
12.84655	-14.85324	11.27051
12.85073	-14.85324	11.27051
12.85491	-14.85324	11.27051
12.85921	-14.85324	11.27051
12.86340	-14.85324	11.27051
12.86769	-14.85324	11.27051
12.87189	-14.85324	11.27051
12.87608	-14.85324	11.27051
12.88026	-14.85324	11.27051
12.88445	-14.85324	11.27051
12.88863	-14.85324	11.27051
12.89282	-14.85324	11.27051
12.89720	-14.85324	11.27051
12.90141	-14.85324	11.27051
12.90560	-14.85324	11.27051
12.90979	-14.85324	11.27051
12.91397	-14.85324	11.27051
12.91816	-14.85324	11.27051
12.92234	-14.87521	11.27051
12.92660	-14.85324	11.27051
12.93086	-14.85324	11.27051
12.93506	-14.85324	11.27051
12.93925	-14.87521	11.27051
12.94344	-14.85324	11.27051
12.94762	-14.85324	11.27051
12.95181	-14.87521	11.27051
12.95606	-14.87521	11.27051
12.96044	-14.87521	11.27051
12.96464	-14.87521	11.27051
12.96882	-14.87521	11.27051
12.97301	-14.87521	11.27051
12.97719	-14.87521	11.27051
12.98138	-14.87521	11.27051
12.98556	-14.89718	11.27051
12.98985	-14.89718	11.27051
12.99405	-14.89718	11.27051
12.99827	-14.89718	11.27051
13.00247	-14.89718	11.27051
13.00666	-14.89718	11.27051
13.01084	-14.91916	11.27051
13.01503	-14.91916	11.27051
13.01941	-14.91916	11.27051
13.02362	-14.91916	11.27051
13.02780	-14.91916	11.27051
13.03199	-14.91916	11.27051
13.03617	-14.91916	11.27051
13.04036	-14.94113	11.27051
13.04454	-14.94113	11.27051
13.04880	-14.94113	11.27051
13.05306	-14.94113	11.27051
13.05726	-14.94113	11.27051
13.06155	-14.94113	11.27051
13.06573	-14.94113	11.27051
13.06992	-14.94113	11.27051
13.07410	-14.94113	11.27051
13.07835	-14.96310	11.27051
13.08263	-14.96310	11.27051
13.08686	-14.96310	11.27051
13.09110	-14.96310	11.27051
13.09531	-14.98507	11.27051
13.09952	-14.98507	11.27051
13.10373	-14.98507	11.27051
13.10821	-14.98507	11.27051
13.11259	-14.98507	11.27051
13.11683	-14.98507	11.27051
13.12104	-15.00705	11.27051
13.12526	-15.00705	11.27051
13.12946	-15.00705	11.27051
13.13367	-15.00705	11.27051
13.13789	-15.00705	11.27051
13.14244	-15.00705	11.27051
13.14667	-15.00705	11.27051
13.15086	-15.00705	11.27051
13.15506	-15.02902	11.27051
13.15926	-15.02902	11.27051
13.16356	-15.02902	11.27051
13.16775	-15.05099	11.27051
13.17202	-15.02902	11.27051
13.17628	-15.05099	11.27051
13.18048	-15.05099	11.27051
13.18466	-15.05099	11.27051
13.18885	-15.05099	11.27051
13.19303	-15.05099	11.27051
13.19721	-15.05099	11.27051
13.20146	-15.07297	11.27051
13.20574	-15.07297	11.27051
13.20994	-15.07297	11.27051
13.21413	-15.07297	11.27051
13.21831	-15.07297	11.27051
13.22250	-15.09494	11.27051
13.22668	-15.07297	11.27051
13.23086	-15.09494	11.27051
13.23518	-15.09494	11.27051
13.23938	-15.09494	11.27051
13.24357	-15.09494	11.27051
13.24775	-15.09494	11.27051
13.25194	-15.11691	11.27051
13.25612	-15.11691	11.27051
13.26031	-15.11691	11.27051
13.26486	-15.11691	11.27051
13.26906	-15.13888	11.27051
13.27325	-15.13888	11.27051
13.27743	-15.13888	11.27051
13.28161	-15.13888	11.27051
13.28583	-15.13888	11.27051
13.29002	-15.13888	11.27051
13.29428	-15.13888	11.27051
13.29857	-15.16086	11.27051
13.30279	-15.16086	11.27051
13.30700	-15.16086	11.27051
13.31121	-15.16086	11.27051
13.31540	-15.16086	11.27051
13.31959	-15.16086	11.27051
13.32386	-15.18283	11.27051
13.32814	-15.18283	11.27051
13.33234	-15.18283	11.27051
13.33654	-15.18283	11.27051
13.34073	-15.20480	11.27051
13.34492	-15.20480	11.27051
13.34911	-15.20480	11.27051
13.35330	-15.20480	11.27051
13.35760	-15.20480	11.27051
13.36181	-15.20480	11.27051
13.36611	-15.22677	11.27051
13.37030	-15.22677	11.27051
13.37449	-15.22677	11.27051
13.37868	-15.22677	11.27051
13.38287	-15.22677	11.27051
13.38726	-15.22677	11.27051
13.39148	-15.24875	11.27051
13.39568	-15.24875	11.27051
13.39987	-15.24875	11.27051
13.40407	-15.24875	11.27051
13.40826	-15.24875	11.27051
13.41245	-15.24875	11.27051
13.41676	-15.27072	11.27051
13.42103	-15.27072	11.27051
13.42523	-15.27072	11.27051
13.42941	-15.27072	11.27051
13.43360	-15.27072	11.27051
13.43778	-15.29269	11.27051
13.44197	-15.29269	11.27051
13.44626	-15.29269	11.27051
13.45055	-15.29269	11.27051
13.45476	-15.29269	11.27051
13.45895	-15.29269	11.27051
13.46315	-15.29269	11.27051
13.46744	-15.31466	11.27051
13.47163	-15.31466	11.27051
13.47581	-15.31466	11.27051
13.48010	-15.33664	11.27051
13.48430	-15.33664	11.27051
13.48849	-15.33664	11.27051
13.49268	-15.33664	11.27051
13.49686	-15.31466	11.27051
13.50105	-15.33664	11.27051
13.50523	-15.33664	11.27051
13.50963	-15.33664	11.27051
13.51383	-15.33664	11.27051
13.51802	-15.35861	11.27051
13.52221	-15.35861	11.27051
13.52639	-15.35861	11.27051
13.53058	-15.35861	11.27051
13.53476	-15.35861	11.27051
13.53903	-15.35861	11.27051
13.54326	-15.38058	11.27051
13.54745	-15.38058	11.27051
13.55164	-15.38058	11.27051
13.55583	-15.38058	11.27051
13.56001	-15.38058	11.27051
13.56420	-15.40256	11.27051
13.56856	-15.40256	11.27051
13.57283	-15.40256	11.27051
13.57702	-15.40256	11.27051
13.58121	-15.40256	11.27051
13.58539	-15.40256	11.27051
13.58958	-15.40256	11.27051
13.59376	-15.42453	11.27051
13.59794	-15.42453	11.27051
13.60225	-15.42453	11.27051
13.60645	-15.42453	11.27051
13.61064	-15.42453	11.27051
13.61482	-15.42453	11.27051
13.61900	-15.44650	11.27051
13.62319	-15.44650	11.27051
13.62737	-15.44650	11.27051
13.63176	-15.44650	11.27051
13.63597	-15.44650	11.27051
13.64016	-15.44650	11.27051
13.64435	-15.44650	11.27051
13.64853	-15.46847	11.27051
13.65272	-15.46847	11.27051
13.65690	-15.46847	11.27051
13.66117	-15.46847	11.27051
13.66542	-15.46847	11.27051
13.66973	-15.49045	11.27051
13.67392	-15.49045	11.27051
13.67810	-15.49045	11.27051
13.68229	-15.49045	11.27051
13.68647	-15.49045	11.27051
13.69074	-15.49045	11.27051
13.69502	-15.51242	11.27051
13.69920	-15.51242	11.27051
13.70339	-15.51242	11.27051
13.70758	-15.51242	11.27051
13.71177	-15.51242	11.27051
13.71595	-15.51242	11.27051
13.72014	-15.51242	11.27051
13.72443	-15.53439	11.27051
13.72863	-15.53439	11.27051
13.73282	-15.53439	11.27051
13.73700	-15.53439	11.27051
13.74119	-15.53439	11.27051
13.74537	-15.53439	11.27051
13.74956	-15.53439	11.27051
13.75396	-15.53439	11.27051
13.75817	-15.55636	11.27051
13.76235	-15.55636	11.27051
13.76654	-15.55636	11.27051
13.77083	-15.55636	11.27051
13.77501	-15.55636	11.27051
13.77919	-15.55636	11.27051
13.78345	-15.55636	11.27051
13.78772	-15.57834	11.27051
13.79191	-15.57834	11.27051
13.79610	-15.57834	11.27051
13.80029	-15.57834	11.27051
13.80449	-15.57834	11.27051
13.80868	-15.57834	11.27051
13.81293	-15.57834	11.27051
13.81720	-15.60031	11.27051
13.82141	-15.60031	11.27051
13.82560	-15.57834	11.27051
13.82979	-15.60031	11.27051
13.83398	-15.60031	11.27051
13.83817	-15.60031	11.27051
13.84236	-15.60031	11.27051
13.84666	-15.60031	11.27051
13.85086	-15.60031	11.27051
13.85506	-15.60031	11.27051
13.85925	-15.62228	11.27051
13.86344	-15.62228	11.27051
13.86763	-15.62228	11.27051
13.87193	-15.62228	11.27051
13.87629	-15.62228	11.27051
13.88049	-15.62228	11.27051
13.88469	-15.62228	11.27051
13.88888	-15.64425	11.27051
13.89307	-15.64425	11.27051
13.89726	-15.64425	11.27051
13.90145	-15.64425	11.27051
13.90577	-15.64425	11.27051
13.91002	-15.64425	11.27051
13.91422	-15.66623	11.27051
13.91841	-15.64425	11.27051
13.92260	-15.66623	11.27051
13.92679	-15.66623	11.27051
13.93098	-15.66623	11.27051
13.93523	-15.66623	11.27051
13.93952	-15.66623	11.27051
13.94372	-15.66623	11.27051
13.94791	-15.66623	11.27051
13.95210	-15.66623	11.27051
13.95629	-15.66623	11.27051
13.96048	-15.68820	11.27051
13.96467	-15.66623	11.27051
13.96897	-15.68820	11.27051
13.97328	-15.68820	11.27051
13.97748	-15.68820	11.27051
13.98166	-15.68820	11.27051
13.98585	-15.68820	11.27051
13.99005	-15.68820	11.27051
13.99423	-15.71017	11.27051
13.99860	-15.68820	11.27051
14.00282	-15.68820	11.27051
14.00702	-15.68820	11.27051
14.01119	-15.68820	11.27051
14.01538	-15.71017	11.27051
14.01958	-15.71017	11.27051
14.02376	-15.71017	11.27051
14.02808	-15.71017	11.27051
14.03234	-15.71017	11.27051
14.03655	-15.73214	11.27051
14.04074	-15.71017	11.27051
14.04493	-15.73214	11.27051
14.04912	-15.71017	11.27051
14.05331	-15.73214	11.27051
14.05755	-15.73214	11.27051
14.06183	-15.73214	11.27051
14.06604	-15.73214	11.27051
14.07023	-15.73214	11.27051
14.07453	-15.73214	11.27051
14.07872	-15.75412	11.27051
14.08291	-15.75412	11.27051
14.08711	-15.73214	11.27051
14.09142	-15.75412	11.27051
14.09562	-15.75412	11.27051
14.09981	-15.75412	11.27051
14.10400	-15.75412	11.27051
14.10819	-15.75412	11.27051
14.11238	-15.75412	11.27051
14.11657	-15.75412	11.27051
14.12093	-15.75412	11.27051
14.12514	-15.77609	11.27051
14.12932	-15.77609	11.27051
14.13351	-15.77609	11.27051
14.13769	-15.77609	11.27051
14.14188	-15.77609	11.27051
14.14606	-15.77609	11.27051
14.15032	-15.77609	11.27051
14.15458	-15.77609	11.27051
14.15878	-15.77609	11.27051
14.16296	-15.77609	11.27051
14.16715	-15.77609	11.27051
14.17134	-15.79806	11.27051
14.17562	-15.79806	11.27051
14.17988	-15.79806	11.27051
14.18416	-15.79806	11.27051
14.18835	-15.79806	11.27051
14.19254	-15.79806	11.27051
14.19672	-15.82004	11.27051
14.20091	-15.79806	11.27051
14.20509	-15.79806	11.27051
14.20929	-15.82004	11.27051
14.21358	-15.79806	11.27051
14.21779	-15.79806	11.27051
14.22198	-15.82004	11.27051
14.22616	-15.82004	11.27051
14.23035	-15.82004	11.27051
14.23453	-15.82004	11.27051
14.23872	-15.84201	11.27051
14.24315	-15.84201	11.27051
14.24735	-15.84201	11.27051
14.25154	-15.82004	11.27051
14.25573	-15.84201	11.27051
14.25991	-15.84201	11.27051
14.26410	-15.84201	11.27051
14.26828	-15.84201	11.27051
14.27255	-15.84201	11.27051
14.27690	-15.84201	11.27051
14.28109	-15.86398	11.27051
14.28531	-15.84201	11.27051
14.28951	-15.86398	11.27051
14.29369	-15.84201	11.27051
14.29788	-15.84201	11.27051
14.30214	-15.84201	11.27051
14.30641	-15.86398	11.27051
14.31062	-15.86398	11.27051
14.31481	-15.86398	11.27051
14.31900	-15.86398	11.27051
14.32319	-15.86398	11.27051
14.32737	-15.86398	11.27051
14.33156	-15.86398	11.27051
14.33585	-15.86398	11.27051
14.34007	-15.88595	11.27051
14.34426	-15.86398	11.27051
14.34847	-15.86398	11.27051
14.35266	-15.88595	11.27051
14.35686	-15.88595	11.27051
14.36105	-15.88595	11.27051
14.36546	-15.88595	11.27051
14.36968	-15.88595	11.27051
14.37387	-15.88595	11.27051
14.37816	-15.88595	11.27051
14.38234	-15.88595	11.27051
14.38652	-15.90793	11.27051
14.39072	-15.88595	11.27051
14.39499	-15.90793	11.27051
14.39928	-15.90793	11.27051
14.40348	-15.90793	11.27051
14.40767	-15.90793	11.27051
14.41187	-15.90793	11.27051
14.41605	-15.90793	11.27051
14.42024	-15.90793	11.27051
14.42451	-15.90793	11.27051
14.42879	-15.90793	11.27051
14.43299	-15.90793	11.27051
14.43717	-15.92990	11.27051
14.44136	-15.92990	11.27051
14.44559	-15.92990	11.27051
14.44978	-15.92990	11.27051
14.45396	-15.92990	11.27051
14.45826	-15.92990	11.27051
14.46247	-15.92990	11.27051
14.46665	-15.90793	11.27051
14.47084	-15.92990	11.27051
14.47503	-15.92990	11.27051
14.47929	-15.92990	11.27051
14.48347	-15.92990	11.27051
14.48787	-15.92990	11.27051
14.49208	-15.92990	11.27051
14.49627	-15.95187	11.27051
14.50045	-15.92990	11.27051
14.50464	-15.95187	11.27051
14.50883	-15.95187	11.27051
14.51302	-15.92990	11.27051
14.51729	-15.92990	11.27051
14.52154	-15.95187	11.27051
14.52574	-15.92990	11.27051
14.52992	-15.95187	11.27051
14.53411	-15.95187	11.27051
14.53829	-15.92990	11.27051
14.54248	-15.95187	11.27051
14.54673	-15.95187	11.27051
14.55100	-15.92990	11.27051
14.55520	-15.95187	11.27051
14.55939	-15.92990	11.27051
14.56358	-15.92990	11.27051
14.56776	-15.95187	11.27051
14.57195	-15.92990	11.27051
14.57613	-15.95187	11.27051
14.58053	-15.95187	11.27051
14.58473	-15.95187	11.27051
14.58892	-15.95187	11.27051
14.59310	-15.95187	11.27051
14.59729	-15.95187	11.27051
14.60147	-15.95187	11.27051
14.60566	-15.95187	11.27051
14.61004	-15.95187	11.27051
14.61426	-15.92990	11.27051
14.61845	-15.95187	11.27051
14.62263	-15.92990	11.27051
14.62682	-15.95187	11.27051
14.63100	-15.92990	11.27051
14.63519	-15.95187	11.27051
14.63946	-15.95187	11.27051
14.64372	-15.95187	11.27051
14.64792	-15.92990	11.27051
14.65210	-15.95187	11.27051
14.65629	-15.92990	11.27051
14.66047	-15.92990	11.27051
14.66466	-15.92990	11.27051
14.66891	-15.92990	11.27051
14.67319	-15.92990	11.27051
14.67738	-15.92990	11.27051
14.68167	-15.92990	11.27051
14.68586	-15.92990	11.27051
14.69004	-15.92990	11.27051
14.69423	-15.90793	11.27051
14.69841	-15.92990	11.27051
14.70271	-15.92990	11.27051
14.70691	-15.92990	11.27051
14.71111	-15.92990	11.27051
14.71530	-15.92990	11.27051
14.71948	-15.90793	11.27051
14.72367	-15.92990	11.27051
14.72785	-15.92990	11.27051
14.73223	-15.90793	11.27051
14.73644	-15.90793	11.27051
14.74062	-15.90793	11.27051
14.74481	-15.90793	11.27051
14.74900	-15.90793	11.27051
14.75318	-15.90793	11.27051
14.75737	-15.90793	11.27051
14.76164	-15.90793	11.27051
14.76590	-15.90793	11.27051
14.77010	-15.90793	11.27051
14.77429	-15.90793	11.27051
14.77847	-15.90793	11.27051
14.78276	-15.90793	11.27051
14.78694	-15.90793	11.27051
14.79120	-15.90793	11.27051
14.79548	-15.90793	11.27051
14.79968	-15.90793	11.27051
14.80386	-15.88595	11.27051
14.80805	-15.90793	11.27051
14.81223	-15.88595	11.27051
14.81643	-15.90793	11.27051
14.82061	-15.88595	11.27051
14.82490	-15.88595	11.27051
14.82911	-15.88595	11.27051
14.83329	-15.90793	11.27051
14.83747	-15.88595	11.27051
14.84166	-15.90793	11.27051
14.84584	-15.90793	11.27051
14.85003	-15.88595	11.27051
14.85442	-15.90793	11.27051
14.85863	-15.90793	11.27051
14.86281	-15.88595	11.27051
14.86700	-15.90793	11.27051
14.87119	-15.90793	11.27051
14.87537	-15.88595	11.27051
14.87956	-15.90793	11.27051
14.88394	-15.90793	11.27051
14.88819	-15.90793	11.27051
14.89238	-15.90793	11.27051
14.89656	-15.90793	11.27051
14.90075	-15.90793	11.27051
14.90493	-15.90793	11.27051
14.90912	-15.88595	11.27051
14.91336	-15.90793	11.27051
14.91764	-15.90793	11.27051
14.92184	-15.90793	11.27051
14.92602	-15.90793	11.27051
14.93021	-15.90793	11.27051
14.93439	-15.90793	11.27051
14.93857	-15.90793	11.27051
14.94276	-15.90793	11.27051
14.94704	-15.90793	11.27051
14.95121	-15.90793	11.27051
14.95539	-15.90793	11.27051
14.95958	-15.90793	11.27051
14.96376	-15.92990	11.27051
14.96795	-15.90793	11.27051
14.97213	-15.92990	11.27051
14.97653	-15.90793	11.27051
14.98074	-15.90793	11.27051
14.98503	-15.90793	11.27051
14.98922	-15.92990	11.27051
14.99340	-15.92990	11.27051
14.99759	-15.92990	11.27051
15.00215	-15.92990	4.78582
15.00641	-15.92990	4.78582
15.01069	-15.92990	4.78582
15.01488	-15.92990	4.78582
15.01908	-15.92990	4.78582
15.02326	-15.92990	4.78582
15.02744	-15.92990	4.78582
15.03162	-15.95187	4.78582
15.03580	-15.95187	4.78582
15.04009	-15.95187	4.78582
15.04429	-15.92990	4.78582
15.04848	-15.95187	4.78582
15.05267	-15.92990	4.78582
15.05685	-15.92990	4.78582
15.06103	-15.92990	4.78582
15.06522	-15.92990	4.78582
15.06961	-15.95187	4.78582
15.07381	-15.95187	4.78582
15.07799	-15.92990	4.78582
15.08218	-15.95187	4.78582
15.08636	-15.95187	4.78582
15.09054	-15.92990	4.78582
15.09472	-15.92990	4.78582
15.09899	-15.92990	4.78582
15.10336	-15.90793	4.78582
15.10754	-15.90793	4.78582
15.11173	-15.90793	4.78582
15.11592	-15.88595	4.78582
15.12010	-15.90793	4.78582
15.12428	-15.88595	4.78582
15.12853	-15.88595	4.78582
15.13281	-15.86398	4.78582
15.13701	-15.86398	4.78582
15.14119	-15.86398	4.78582
15.14538	-15.84201	4.78582
15.14957	-15.84201	4.78582
15.15375	-15.82004	4.78582
15.15793	-15.82004	4.78582
15.16223	-15.82004	4.78582
15.16643	-15.79806	4.78582
15.17062	-15.77609	4.78582
15.17481	-15.75412	4.78582
15.17899	-15.75412	4.78582
15.18318	-15.73214	4.78582
15.18737	-15.71017	4.78582
15.19178	-15.71017	4.78582
15.19598	-15.71017	4.78582
15.20016	-15.68820	4.78582
15.20445	-15.66623	4.78582
15.20863	-15.64425	4.78582
15.21282	-15.62228	4.78582
15.21700	-15.62228	4.78582
15.22126	-15.57834	4.78582
15.22552	-15.57834	4.78582
15.22971	-15.53439	4.78582
15.23390	-15.51242	4.78582
15.23809	-15.49045	4.78582
15.24227	-15.49045	4.78582
15.24646	-15.46847	4.78582
15.25071	-15.44650	4.78582
15.25498	-15.40256	4.78582
15.25919	-15.38058	4.78582
15.26340	-15.35861	4.78582
15.26759	-15.35861	4.78582
15.27177	-15.31466	4.78582
15.27596	-15.29269	4.78582
15.28014	-15.24875	4.78582
15.28444	-15.22677	4.78582
15.28868	-15.18283	4.78582
15.29289	-15.16086	4.78582
15.29708	-15.16086	4.78582
15.30127	-15.11691	4.78582
15.30557	-15.09494	4.78582
15.30977	-15.05099	4.78582
15.31415	-15.00705	4.78582
15.31836	-14.98507	4.78582
15.32257	-14.94113	4.78582
15.32676	-14.94113	4.78582
15.33095	-14.89718	4.78582
15.33514	-14.87521	4.78582
15.33933	-14.83127	4.78582
15.34365	-14.78732	4.78582
15.34793	-14.74338	4.78582
15.35214	-14.74338	4.78582
15.35633	-14.69943	4.78582
15.36053	-14.65548	4.78582
15.36473	-14.58957	4.78582
15.36892	-14.56759	4.78582
15.37317	-14.56759	4.78582
15.37745	-14.50168	4.78582
15.38165	-14.45773	4.78582
15.38584	-14.41379	4.78582
15.39003	-14.36984	4.78582
15.39423	-14.32589	4.78582
15.39843	-14.32589	4.78582
15.40263	-14.25998	4.78582
15.40706	-14.23800	4.78582
15.41126	-14.17209	4.78582
15.41545	-14.12814	4.78582
15.41964	-14.08420	4.78582
15.42382	-14.01828	4.78582
15.42801	-14.01828	4.78582
15.43219	-13.97433	4.78582
15.43660	-13.90841	4.78582
15.44080	-13.84250	4.78582
15.44500	-13.79855	4.78582
15.44920	-13.75461	4.78582
15.45340	-13.68869	4.78582
15.45759	-13.68869	4.78582
15.46178	-13.64474	4.78582
15.46606	-13.57882	4.78582
15.47032	-13.51291	4.78582
15.47452	-13.46896	4.78582
15.47871	-13.46896	4.78582
15.48289	-13.40304	4.78582
15.48709	-13.33713	4.78582
15.49128	-13.29318	4.78582
15.49553	-13.22726	4.78582
15.49981	-13.16134	4.78582
15.50401	-13.09543	4.78582
15.50830	-13.09543	4.78582
15.51248	-13.02951	4.78582
15.51667	-12.96359	4.78582
15.52085	-12.89767	4.78582
15.52504	-12.85373	4.78582
15.52933	-12.78781	4.78582
15.53353	-12.72189	4.78582
15.53772	-12.72189	4.78582
15.54190	-12.65597	4.78582
15.54609	-12.59006	4.78582
15.55027	-12.52414	4.78582
15.55445	-12.45822	4.78582
15.55884	-12.37033	4.78582
15.56305	-12.37033	4.78582
15.56719	-12.30441	4.78582
15.57138	-12.23849	4.78582
15.57556	-12.19455	4.78582
15.57975	-12.10666	4.78582
15.58393	-12.04074	4.78582
15.58820	-12.04074	4.78582
15.59245	-11.97482	4.78582
15.59664	-11.88693	4.78582
15.60083	-11.82101	4.78582
15.60501	-11.75509	4.78582
15.60930	-11.68918	4.78582
15.61348	-11.68918	4.78582
15.61773	-11.60129	4.78582
15.62200	-11.53537	4.78582
15.62621	-11.44748	4.78582
15.63039	-11.38156	4.78582
15.63458	-11.31564	4.78582
15.63876	-11.31564	4.78582
15.64294	-11.22775	4.78582
15.64714	-11.13986	4.78582
15.65144	-11.07394	4.78582
15.65564	-11.00802	4.78582
15.65982	-10.94211	4.78582
15.66401	-10.94211	4.78582
15.66819	-10.85422	4.78582
15.67238	-10.78830	4.78582
15.67656	-10.70041	4.78582
15.68095	-10.63449	4.78582
15.68517	-10.54660	4.78582
15.68935	-10.54660	4.78582
15.69354	-10.48068	4.78582
15.69772	-10.39279	4.78582
15.70190	-10.32687	4.78582
15.70609	-10.26095	4.78582
15.71048	-10.17306	4.78582
15.71473	-10.08517	4.78582
15.71892	-10.08517	4.78582
15.72311	-10.01925	4.78582
15.72730	-9.93136	4.78582
15.73149	-9.86545	4.78582
15.73567	-9.77756	4.78582
15.73992	-9.77756	4.78582
15.74419	-9.62375	4.78582
15.74838	-9.62375	4.78582
15.75257	-9.55783	4.78582
15.75675	-9.46994	4.78582
15.76100	-9.40402	4.78582
15.76519	-9.31613	4.78582
15.76939	-9.31613	4.78582
15.77369	-9.22824	4.78582
15.77790	-9.16232	4.78582
15.78208	-9.07443	4.78582
15.78627	-9.00851	4.78582
15.79046	-8.94259	4.78582
15.79464	-8.85470	4.78582
15.79882	-8.85470	4.78582
15.80323	-8.76681	4.78582
15.80744	-8.70089	4.78582
15.81173	-8.61300	4.78582
15.81591	-8.54709	4.78582
15.82009	-8.45920	4.78582
15.82428	-8.45920	4.78582
15.82846	-8.39328	4.78582
15.83273	-8.32736	4.78582
15.83698	-8.23947	4.78582
15.84117	-8.17355	4.78582
15.84536	-8.08566	4.78582
15.84955	-8.08615	4.78582
15.85373	-8.01974	4.78582
15.85792	-7.93185	4.78582
15.86216	-7.86593	4.78582
15.86644	-7.77804	4.78582
15.87063	-7.71213	4.78582
15.87482	-7.71213	4.78582
15.87900	-7.62423	4.78582
15.88318	-7.55832	4.78582
15.88737	-7.49240	4.78582
15.89155	-7.40451	4.78582
15.89584	-7.33859	4.78582
15.90004	-7.33859	4.78582
15.90423	-7.27267	4.78582
15.90841	-7.18478	4.78582
15.91269	-7.11886	4.78582
15.91688	-7.05295	4.78582
15.92106	-6.98703	4.78582
15.92544	-6.92111	4.78582
15.92964	-6.92111	4.78582
15.93383	-6.85519	4.78582
15.93801	-6.76730	4.78582
15.94219	-6.70138	4.78582
15.94637	-6.63547	4.78582
15.95056	-6.63547	4.78582
15.95482	-6.56955	4.78582
15.95909	-6.50363	4.78582
15.96328	-6.43771	4.78582
15.96747	-6.37179	4.78582
15.97165	-6.30588	4.78582
15.97584	-6.23996	4.78582
15.98002	-6.23996	4.78582
15.98427	-6.17404	4.78582
15.98854	-6.10812	4.78582
15.99273	-6.04220	4.78582
15.99692	-5.97629	4.78582
16.00110	-5.93234	4.78582
16.00529	-5.86642	4.78582
16.00947	-5.86642	4.78582
16.01376	-5.80050	4.78582
16.01804	-5.73459	4.78582
16.02224	-5.66867	4.78582
16.02644	-5.60275	4.78582
16.03062	-5.60275	4.78582
16.03481	-5.53683	4.78582
16.03899	-5.47091	4.78582
16.04319	-5.44894	4.78582
16.04759	-5.38302	4.78582
16.05180	-5.31711	4.78582
16.05598	-5.25119	4.78582
16.06017	-5.25119	4.78582
16.06435	-5.20724	4.78582
16.06853	-5.14132	4.78582
16.07272	-5.07541	4.78582
16.07698	-5.03146	4.78582
16.08124	-4.96554	4.78582
16.08543	-4.92160	4.78582
16.08961	-4.92160	4.78582
16.09380	-4.87765	4.78582
16.09798	-4.81173	4.78582
16.10217	-4.76779	4.78582
16.10641	-4.70187	4.78582
16.11068	-4.65793	4.78582
16.11498	-4.65793	4.78582
16.11918	-4.61398	4.78582
16.12336	-4.54806	4.78582
16.12755	-4.50412	4.78582
16.13173	-4.43820	4.78582
16.13591	-4.43820	4.78582
16.14021	-4.39425	4.78582
16.14441	-4.37228	4.78582
16.14859	-4.30636	4.78582
16.15277	-4.26242	4.78582
16.15696	-4.21847	4.78582
16.16114	-4.21847	4.78582
16.16533	-4.15256	4.78582
16.16971	-4.13058	4.78582
16.17392	-4.08664	4.78582
16.17810	-4.04269	4.78582
16.18229	-3.99875	4.78582
16.18647	-3.95480	4.78582
16.19066	-3.95480	4.78582
16.19484	-3.91086	4.78582
16.19912	-3.86691	4.78582
16.20338	-3.82297	4.78582
16.20757	-3.80099	4.78582
16.21176	-3.75705	4.78582
16.21605	-3.75705	4.78582
16.22023	-3.73507	4.78582
16.22441	-3.66916	4.78582
16.22867	-3.64718	4.78582
16.23295	-3.60324	4.78582
16.23715	-3.55929	4.78582
16.24133	-3.55929	4.78582
16.24552	-3.53732	4.78582
16.24970	-3.49338	4.78582
16.25390	-3.47140	4.78582
16.25809	-3.44943	4.78582
16.26239	-3.40548	4.78582
16.26659	-3.38351	4.78582
16.27077	-3.38351	4.78582
16.27496	-3.36154	4.78582
16.27915	-3.31759	4.78582
16.28333	-3.29562	4.78582
16.28754	-3.25168	4.78582
16.29196	-3.22970	4.78582
16.29617	-3.20773	4.78582
16.30036	-3.20773	4.78582
16.30454	-3.18576	4.78582
16.30873	-3.16379	4.78582
16.31291	-3.14181	4.78582
16.31720	-3.11984	4.78582
16.32146	-3.11984	4.78582
16.32571	-3.09787	4.78582
16.32992	-3.07589	4.78582
16.33410	-3.05392	4.78582
16.33829	-3.03195	4.78582
16.34247	-3.00998	4.78582
16.34666	-2.98800	4.78582
16.35090	-2.98800	4.78582
16.35519	-2.98800	4.78582
16.35939	-2.96603	4.78582
16.36358	-2.94406	4.78582
16.36777	-2.92209	4.78582
16.37196	-2.92209	4.78582
16.37614	-2.92209	4.78582
16.38033	-2.90011	4.78582
16.38462	-2.90011	4.78582
16.38882	-2.87814	4.78582
16.39302	-2.87814	4.78582
16.39721	-2.87814	4.78582
16.40140	-2.85617	4.78582
16.40559	-2.85617	4.78582
16.40978	-2.83420	4.78582
16.41421	-2.83420	4.78582
16.41853	-2.83420	4.78582
16.42271	-2.83420	4.78582
16.42690	-2.81222	4.78582
16.43110	-2.81222	4.78582
16.43529	-2.81222	4.78582
16.43947	-2.81222	4.78582
16.44378	-2.79025	4.78582
16.44805	-2.79025	4.78582
16.45225	-2.79025	4.78582
16.45644	-2.79025	4.78582
16.46063	-2.79025	4.78582
16.46482	-2.79025	4.78582
16.46900	-2.79025	4.78582
16.47326	-2.79025	4.78582
16.47754	-2.79025	4.78582
16.48174	-2.79025	4.78582
16.48593	-2.79025	4.78582
16.49012	-2.79025	4.78582
16.49430	-2.79025	4.78582
16.49849	-2.79025	4.78582
16.50267	-2.79025	4.78582
16.50697	-2.81222	4.78582
16.51119	-2.81222	4.78582
16.51538	-2.81222	4.78582
16.51967	-2.83420	4.78582
16.52385	-2.83420	4.78582
16.52804	-2.83420	4.78582
16.53222	-2.83420	4.78582
16.53663	-2.83420	4.78582
16.54083	-2.85617	4.78582
16.54504	-2.85617	4.78582
16.54924	-2.85617	4.78582
16.55344	-2.87814	4.78582
16.55763	-2.90011	4.78582
16.56181	-2.90011	4.78582
16.56608	-2.90011	4.78582
16.57035	-2.92209	4.78582
16.57455	-2.92209	4.78582
16.57874	-2.94406	4.78582
16.58292	-2.96603	4.78582
16.58712	-2.96603	4.78582
16.59130	-2.98800	4.78582
16.59556	-2.98800	4.78582
16.59985	-3.00998	4.78582
16.60406	-3.03195	4.78582
16.60824	-3.05392	4.78582
16.61243	-3.05392	4.78582
16.61661	-3.05392	4.78582
16.62090	-3.09787	4.78582
16.62508	-3.09787	4.78582
16.62938	-3.11984	4.78582
16.63359	-3.14181	4.78582
16.63777	-3.14181	4.78582
16.64196	-3.16379	4.78582
16.64616	-3.18576	4.78582
16.65035	-3.20773	4.78582
16.65455	-3.22970	4.78582
16.65896	-3.25168	4.78582
16.66317	-3.25168	4.78582
16.66736	-3.27365	4.78582
16.67155	-3.31759	4.78582
16.67574	-3.33957	4.78582
16.67992	-3.36154	4.78582
16.68411	-3.38351	4.78582
16.68837	-3.40548	4.78582
16.69263	-3.40548	4.78582
16.69682	-3.42746	4.78582
16.70101	-3.47140	4.78582
16.70520	-3.49338	4.78582
16.70938	-3.51535	4.78582
16.71357	-3.51535	4.78582
16.71781	-3.53732	4.78582
16.72221	-3.58127	4.78582
16.72640	-3.60324	4.78582
16.73059	-3.62521	4.78582
16.73477	-3.66916	4.78582
16.73896	-3.71310	4.78582
16.74315	-3.71310	4.78582
16.74735	-3.73507	4.78582
16.75165	-3.77902	4.78582
16.75586	-3.80099	4.78582
16.76005	-3.82297	4.78582
16.76423	-3.86691	4.78582
16.76842	-3.88888	4.78582
16.77260	-3.88888	4.78582
16.77678	-3.93283	4.78582
16.78118	-3.95480	4.78582
16.78538	-3.99875	4.78582
16.78957	-4.04269	4.78582
16.79376	-4.06466	4.78582
16.79794	-4.06466	4.78582
16.80212	-4.10861	4.78582
16.80631	-4.15256	4.78582
16.81058	-4.17453	4.78582
16.81484	-4.19650	4.78582
16.81904	-4.24045	4.78582
16.82329	-4.24045	4.78582
16.82748	-4.28439	4.78582
16.83166	-4.32834	4.78582
16.83584	-4.37228	4.78582
16.84009	-4.39425	4.78582
16.84439	-4.43820	4.78582
16.84859	-4.43820	4.78582
16.85278	-4.48214	4.78582
16.85697	-4.50412	4.78582
16.86116	-4.54806	4.78582
16.86535	-4.59201	4.78582
16.86953	-4.63595	4.78582
16.87382	-4.67990	4.78582
16.87803	-4.67990	4.78582
16.88221	-4.72384	4.78582
16.88640	-4.74582	4.78582
16.89058	-4.78976	4.78582
16.89476	-4.83371	4.78582
16.89896	-4.83371	4.78582
16.90336	-4.87765	4.78582
16.90756	-4.92160	4.78582
16.91175	-4.96554	4.78582
16.91593	-5.00949	4.78582
16.92012	-5.05343	4.78582
16.92441	-5.05343	4.78582
16.92859	-5.09738	4.78582
16.93286	-5.14132	4.78582
16.93712	-5.18527	4.78582
16.94131	-5.20724	4.78582
16.94552	-5.25119	4.78582
16.94971	-5.29513	4.78582
16.95391	-5.29513	4.78582
16.95810	-5.33908	4.78582
16.96235	-5.38302	4.78582
16.96663	-5.42697	4.78582
16.97085	-5.47091	4.78582
16.97506	-5.51486	4.78582
16.97924	-5.55881	4.78582
16.98343	-5.55881	4.78582
16.98763	-5.60275	4.78582
16.99182	-5.64670	4.78582
16.99612	-5.69064	4.78582
17.00034	-5.73459	4.78582
17.00453	-5.73459	4.78582
17.00871	-5.77853	4.78582
17.01290	-5.82248	4.78582
17.01709	-5.86642	4.78582
17.02127	-5.91037	4.78582
17.02580	-5.95431	4.78582
17.03000	-5.99826	4.78582
17.03419	-5.99826	4.78582
17.03838	-6.04220	4.78582
17.04256	-6.08615	4.78582
17.04676	-6.13009	4.78582
17.05095	-6.17404	4.78582
17.05524	-6.23996	4.78582
17.05950	-6.23996	4.78582
17.06369	-6.28390	4.78582
17.06788	-6.30588	4.78582
17.07207	-6.34982	4.78582
17.07625	-6.39377	4.78582
17.08044	-6.43771	4.78582
17.08469	-6.50363	4.78582
17.08897	-6.50363	4.78582
17.09323	-6.54757	4.78582
17.09744	-6.59152	4.78582
17.10165	-6.63547	4.78582
17.10587	-6.67941	4.78582
17.11008	-6.72336	4.78582
17.11458	-6.76730	4.78582
17.11896	-6.76730	4.78582
17.12319	-6.81125	4.78582
17.12750	-6.85519	4.78582
17.13169	-6.89914	4.78582
17.13589	-6.94308	4.78582
17.14008	-6.98703	4.78582
17.14428	-6.98703	4.78582
17.14870	-7.03097	4.78582
17.15293	-7.07492	4.78582
17.15713	-7.11886	4.78582
17.16133	-7.16281	4.78582
17.16552	-7.20675	4.78582
17.16971	-7.20675	4.78582
17.17390	-7.25070	4.78582
17.17821	-7.29464	4.78582
17.18247	-7.33859	4.78582
17.18667	-7.38254	4.78582
17.19085	-7.38254	4.78582
17.19504	-7.42648	4.78582
17.19919	-7.47043	4.78582
17.20337	-7.51437	4.78582
17.20762	-7.55832	4.78582
17.21190	-7.60226	4.78582
17.21610	-7.64621	4.78582
17.22029	-7.64621	4.78582
17.22447	-7.69015	4.78582
17.22876	-7.73410	4.78582
17.23295	-7.77804	4.78582
17.23714	-7.82199	4.78582
17.24143	-7.86593	4.78582
17.24566	-7.90988	4.78582
17.24986	-7.90988	4.78582
17.25405	-7.95382	4.78582
17.25824	-7.99777	4.78582
17.26243	-8.01974	4.78582
17.26661	-8.08566	4.78582
17.27101	-8.10763	4.78582
17.27521	-8.10763	4.78582
17.27939	-8.15158	4.78582
17.28358	-8.19552	4.78582
17.28779	-8.23947	4.78582
17.29198	-8.26144	4.78582
17.29617	-8.30539	4.78582
17.30043	-8.30539	4.78582
17.30468	-8.34933	4.78582
17.30888	-8.39328	4.78582
17.31306	-8.43722	4.78582
17.31725	-8.45920	4.78582
17.32143	-8.50314	4.78582
17.32562	-8.54709	4.78582
17.32998	-8.54709	4.78582
17.33426	-8.59103	4.78582
17.33846	-8.61300	4.78582
17.34264	-8.65695	4.78582
17.34686	-8.70089	4.78582
17.35107	-8.72287	4.78582
17.35538	-8.72287	4.78582
17.35958	-8.76681	4.78582
17.36388	-8.81076	4.78582
17.36814	-8.83273	4.78582
17.37233	-8.87668	4.78582
17.37652	-8.92062	4.78582
17.38071	-8.94259	4.78582
17.38489	-8.94259	4.78582
17.38908	-8.98654	4.78582
17.39353	-9.03048	4.78582
17.39775	-9.05246	4.78582
17.40194	-9.07443	4.78582
17.40613	-9.11838	4.78582
17.41032	-9.11838	4.78582
17.41450	-9.16232	4.78582
17.41869	-9.18429	4.78582
17.42296	-9.22824	4.78582
17.42723	-9.27218	4.78582
17.43153	-9.27218	4.78582
17.43573	-9.29416	4.78582
17.43992	-9.33810	4.78582
17.44410	-9.36007	4.78582
17.44830	-9.38205	4.78582
17.45257	-9.42599	4.78582
17.45685	-9.44797	4.78582
17.46105	-9.44797	4.78582
17.46524	-9.46994	4.78582
17.46943	-9.51388	4.78582
17.47361	-9.55783	4.78582
17.47780	-9.57980	4.78582
17.48198	-9.60177	4.78582
17.48628	-9.60177	4.78582
17.49048	-9.64572	4.78582
17.49467	-9.64572	4.78582
17.49885	-9.68966	4.78582
17.50304	-9.71164	4.78582
17.50719	-9.73361	4.78582
17.51137	-9.73361	4.78582
17.51577	-9.75558	4.78582
17.51997	-9.77756	4.78582
17.52416	-9.82150	4.78582
17.52835	-9.84347	4.78582
17.53264	-9.86545	4.78582
17.53683	-9.88742	4.78582
17.54102	-9.88742	4.78582
17.54531	-9.90939	4.78582
17.54958	-9.93136	4.78582
17.55378	-9.95334	4.78582
17.55797	-9.97531	4.78582
17.56215	-9.99728	4.78582
17.56634	-9.99728	4.78582
17.57053	-10.04123	4.78582
17.57478	-10.04123	4.78582
17.57907	-10.06320	4.78582
17.58327	-10.08517	4.78582
17.58746	-10.10714	4.78582
17.59165	-10.12912	4.78582
17.59583	-10.12912	4.78582
17.60002	-10.15109	4.78582
17.60420	-10.17306	4.78582
17.60850	-10.17306	4.78582
17.61271	-10.21701	4.78582
17.61690	-10.21701	4.78582
17.62109	-10.21701	4.78582
17.62527	-10.23898	4.78582
17.62946	-10.26095	4.78582
17.63375	-10.26095	4.78582
17.63816	-10.28293	4.78582
17.64237	-10.30490	4.78582
17.64658	-10.30490	4.78582
17.65077	-10.30490	4.78582
17.65496	-10.34884	4.78582
17.65915	-10.34884	4.78582
17.66334	-10.37082	4.78582
17.66761	-10.37082	4.78582
17.67187	-10.37082	4.78582
17.67607	-10.39279	4.78582
17.68025	-10.39279	4.78582
17.68444	-10.41476	4.78582
17.68862	-10.43673	4.78582
17.69281	-10.43673	4.78582
17.69706	-10.43673	4.78582
17.70133	-10.43673	4.78582
17.70553	-10.45871	4.78582
17.70971	-10.48068	4.78582
17.71390	-10.48068	4.78582
17.71808	-10.48068	4.78582
17.72227	-10.48068	4.78582
17.72645	-10.50265	4.78582
17.73075	-10.48068	4.78582
17.73507	-10.50265	4.78582
17.73926	-10.52463	4.78582
17.74344	-10.52463	4.78582
17.74764	-10.52463	4.78582
17.75183	-10.52463	4.78582
17.75602	-10.52463	4.78582
17.76042	-10.52463	4.78582
17.76463	-10.54660	4.78582
17.76882	-10.54660	4.78582
17.77301	-10.54660	4.78582
17.77719	-10.54660	4.78582
17.78138	-10.54660	4.78582
17.78556	-10.54660	4.78582
17.78983	-10.54660	4.78582
17.79409	-10.54660	4.78582
17.79828	-10.54660	4.78582
17.80246	-10.56857	4.78582
17.80665	-10.56857	4.78582
17.81083	-10.54660	4.78582
17.81502	-10.56857	4.78582
17.81925	-10.56857	4.78582
17.82352	-10.54660	4.78582
17.82772	-10.54660	4.78582
17.83191	-10.54660	4.78582
17.83620	-10.54660	4.78582
17.84038	-10.54660	4.78582
17.84457	-10.54660	4.78582
17.84877	-10.54660	4.78582
17.85307	-10.54660	4.78582
17.85728	-10.54660	4.78582
17.86147	-10.54660	4.78582
17.86566	-10.54660	4.78582
17.86985	-10.52463	4.78582
17.87403	-10.52463	4.78582
17.87823	-10.52463	4.78582
17.88263	-10.52463	4.78582
17.88685	-10.52463	4.78582
17.89104	-10.50265	4.78582
17.89519	-10.50265	4.78582
17.89937	-10.50265	4.78582
17.90356	-10.48068	4.78582
17.90774	-10.48068	4.78582
17.91201	-10.48068	4.78582
17.91629	-10.45871	4.78582
17.92049	-10.45871	4.78582
17.92467	-10.45871	4.78582
17.92886	-10.45871	4.78582
17.93304	-10.45871	4.78582
17.93733	-10.43673	4.78582
17.94158	-10.43673	4.78582
17.94587	-10.41476	4.78582
17.95008	-10.41476	4.78582
17.95427	-10.39279	4.78582
17.95847	-10.39279	4.78582
17.96266	-10.39279	4.78582
17.96684	-10.37082	4.78582
17.97103	-10.37082	4.78582
17.97531	-10.34884	4.78582
17.97952	-10.34884	4.78582
17.98371	-10.32687	4.78582
17.98790	-10.32687	4.78582
17.99208	-10.32687	4.78582
17.99627	-10.30490	4.78582
18.00045	-10.28293	4.78582
18.00486	-10.28293	4.78582
18.00907	-10.28293	4.78582
18.01325	-10.28293	4.78582
18.01744	-10.26095	4.78582
18.02163	-10.23898	4.78582
18.02581	-10.21701	4.78582
18.02999	-10.21701	4.78582
18.03427	-10.19504	4.78582
18.03864	-10.19504	4.78582
18.04284	-10.17306	4.78582
18.04704	-10.17306	4.78582
18.05119	-10.15109	4.78582
18.05538	-10.12912	4.78582
18.05956	-10.12912	4.78582
18.06382	-10.10714	4.78582
18.06810	-10.10714	4.78582
18.07229	-10.08517	4.78582
18.07648	-10.06320	4.78582
18.08067	-10.06320	4.78582
18.08485	-10.04123	4.78582
18.08904	-10.01925	4.78582
18.09323	-10.01925	4.78582
18.09752	-10.01925	4.78582
18.10173	-9.99728	4.78582
18.10592	-9.97531	4.78582
18.11011	-9.95334	4.78582
18.11429	-9.93136	4.78582
18.11848	-9.93136	4.78582
18.12266	-9.93136	4.78582
18.12705	-9.90939	4.78582
18.13126	-9.88742	4.78582
18.13545	-9.86545	4.78582
18.13974	-9.84347	4.78582
18.14392	-9.84347	4.78582
18.14812	-9.84347	4.78582
18.15231	-9.82150	4.78582
18.15658	-9.79953	4.78582
18.16084	-9.77756	4.78582
18.16504	-9.77756	4.78582
18.16923	-9.73361	4.78582
18.17341	-9.73361	4.78582
18.17760	-9.71164	4.78582
18.18178	-9.71164	4.78582
18.18603	-9.68966	4.78582
18.19031	-9.66769	4.78582
18.19450	-9.66769	4.78582
18.19869	-9.64572	4.78582
18.20287	-9.62375	4.78582
18.20707	-9.60177	4.78582
18.21125	-9.57980	4.78582
18.21544	-9.55783	4.78582
18.21973	-9.53586	4.78582
18.22393	-9.53586	4.78582
18.22811	-9.51388	4.78582
18.23230	-9.51388	4.78582
18.23648	-9.49191	4.78582
18.24078	-9.46994	4.78582
18.24497	-9.44797	4.78582
18.24940	-9.44797	4.78582
18.25362	-9.42599	4.78582
18.25781	-9.40402	4.78582
18.26199	-9.38205	4.78582
18.26618	-9.36007	4.78582
18.27037	-9.33810	4.78582
18.27455	-9.31613	4.78582
18.27882	-9.31613	4.78582
18.28310	-9.31613	4.78582
18.28732	-9.27218	4.78582
18.29151	-9.27218	4.78582
18.29570	-9.22824	4.78582
18.29989	-9.22824	4.78582
18.30407	-9.22824	4.78582
18.30832	-9.20627	4.78582
18.31260	-9.18429	4.78582
18.31680	-9.16232	4.78582
18.32098	-9.14035	4.78582
18.32517	-9.11838	4.78582
18.32935	-9.11838	4.78582
18.33354	-9.11838	4.78582
18.33772	-9.07443	4.78582
18.34212	-9.05246	4.78582
18.34635	-9.05246	4.78582
18.35055	-9.00851	4.78582
18.35475	-9.00851	4.78582
18.35893	-9.00851	4.78582
18.36313	-8.98654	4.78582
18.36732	-8.96457	4.78582
18.37172	-8.94259	4.78582
18.37592	-8.92062	4.78582
18.38010	-8.89865	4.78582
18.38429	-8.89865	4.78582
18.38848	-8.87668	4.78582
18.39267	-8.85470	4.78582
18.39687	-8.83273	4.78582
18.40116	-8.83273	4.78582
18.40543	-8.81076	4.78582
18.40962	-8.81076	4.78582
18.41381	-8.78879	4.78582
18.41800	-8.76681	4.78582
18.42218	-8.74484	4.78582
18.42637	-8.72287	4.78582
18.43063	-8.70089	4.78582
18.43491	-8.70089	4.78582
18.43913	-8.67892	4.78582
18.44342	-8.65695	4.78582
18.44762	-8.63498	4.78582
18.45182	-8.61300	4.78582
18.45601	-8.61300	4.78582
18.46019	-8.61300	4.78582
18.46449	-8.59103	4.78582
18.46870	-8.56906	4.78582
18.47289	-8.54709	4.78582
18.47707	-8.54709	4.78582
18.48126	-8.52511	4.78582
18.48544	-8.52511	4.78582
18.48963	-8.50314	4.78582
18.49403	-8.48117	4.78582
18.49824	-8.45920	4.78582
18.50243	-8.43722	4.78582
18.50662	-8.41525	4.78582
18.51081	-8.41525	4.78582
18.51499	-8.41525	4.78582
18.51918	-8.39328	4.78582
18.52345	-8.37131	4.78582
18.52771	-8.34933	4.78582
18.53190	-8.34933	4.78582
18.53609	-8.32736	4.78582
18.54028	-8.32736	4.78582
18.54457	-8.30539	4.78582
18.54877	-8.28341	4.78582
18.55303	-8.26144	4.78582
18.55731	-8.26144	4.78582
18.56151	-8.23947	4.78582
18.56570	-8.21750	4.78582
18.56989	-8.21750	4.78582
18.57407	-8.21750	4.78582
18.57826	-8.19552	4.78582
18.58244	-8.17355	4.78582
18.58674	-8.15158	4.78582
18.59095	-8.12961	4.78582
18.59514	-8.12961	4.78582
18.59933	-8.12961	4.78582
18.60352	-8.10763	4.78582
18.60770	-8.10763	4.78582
18.61189	-8.06369	4.78582
18.61628	-8.06369	4.78582
18.62049	-8.06369	4.78582
18.62468	-8.04172	4.78582
18.62886	-8.04172	4.78582
18.63305	-8.01974	4.78582
18.63723	-7.99777	4.78582
18.64142	-7.97580	4.78582
18.64581	-7.97580	4.78582
18.65008	-7.97580	4.78582
18.65428	-7.95382	4.78582
18.65847	-7.93185	4.78582
18.66265	-7.90988	4.78582
18.66684	-7.90988	4.78582
18.67102	-7.88791	4.78582
18.67526	-7.88791	4.78582
18.67954	-7.86593	4.78582
18.68374	-7.86593	4.78582
18.68793	-7.84396	4.78582
18.69211	-7.82199	4.78582
18.69630	-7.82199	4.78582
18.70048	-7.82199	4.78582
18.70467	-7.80002	4.78582
18.70896	-7.77804	4.78582
18.71317	-7.77804	4.78582
18.71736	-7.75607	4.78582
18.72155	-7.75607	4.78582
18.72573	-7.73410	4.78582
18.72992	-7.71213	4.78582
18.73410	-7.71213	4.78582
18.73850	-7.69015	4.78582
18.74271	-7.69015	4.78582
18.74702	-7.66818	4.78582
18.75120	-7.66818	4.78582
18.75539	-7.66818	4.78582
18.75957	-7.64621	4.78582
18.76376	-7.62423	4.78582
18.76803	-7.62423	4.78582
18.77229	-7.60226	4.78582
18.77648	-7.60226	4.78582
18.78067	-7.60226	4.78582
18.78486	-7.58029	4.78582
18.78905	-7.55832	4.78582
18.79323	-7.55832	4.78582
18.79748	-7.53634	4.78582
18.80176	-7.53634	4.78582
18.80596	-7.53634	4.78582
18.81015	-7.51437	4.78582
18.81433	-7.49240	4.78582
18.81852	-7.49240	4.78582
18.82271	-7.47043	4.78582
18.82689	-7.47043	4.78582
18.83121	-7.47043	4.78582
18.83541	-7.44845	4.78582
18.83960	-7.44845	4.78582
18.84379	-7.42648	4.78582
18.84811	-7.42648	4.78582
18.85230	-7.40451	4.78582
18.85649	-7.40451	4.78582
18.86091	-7.40451	4.78582
18.86511	-7.38254	4.78582
18.86931	-7.38254	4.78582
18.87349	-7.36056	4.78582
18.87768	-7.33859	4.78582
18.88187	-7.33859	4.78582
18.88605	-7.33859	4.78582
18.89032	-7.33859	4.78582
18.89458	-7.31662	4.78582
18.89878	-7.31662	4.78582
18.90297	-7.29464	4.78582
18.90716	-7.29464	4.78582
18.91135	-7.29464	4.78582
18.91553	-7.27267	4.78582
18.91979	-7.27267	4.78582
18.92407	-7.27267	4.78582
18.92828	-7.25070	4.78582
18.93246	-7.22873	4.78582
18.93665	-7.22873	4.78582
18.94084	-7.22873	4.78582
18.94503	-7.22873	4.78582
18.94935	-7.22873	4.78582
18.95365	-7.20675	4.78582
18.95786	-7.20675	4.78582
18.96205	-7.20675	4.78582
18.96623	-7.18478	4.78582
18.97042	-7.18478	4.78582
18.97460	-7.18478	4.78582
18.97879	-7.18478	4.78582
18.98319	-7.16281	4.78582
18.98740	-7.16281	4.78582
18.99159	-7.16281	4.78582
18.99577	-7.16281	4.78582
18.99996	-7.14084	4.78582
19.00414	-7.14084	4.78582
19.00833	-7.14084	4.78582
19.01259	-7.14084	4.78582
19.01685	-7.14084	4.78582
19.02104	-7.14084	4.78582
19.02523	-7.11886	4.78582
19.02941	-7.11886	4.78582
19.03360	-7.11886	4.78582
19.03778	-7.09689	4.78582
19.04203	-7.09689	4.78582
19.04631	-7.09689	4.78582
19.05064	-7.09689	4.78582
19.05484	-7.09689	4.78582
19.05902	-7.09689	4.78582
19.06319	-7.09689	4.78582
19.06737	-7.09689	4.78582
19.07156	-7.09689	4.78582
19.07586	-7.07492	4.78582
19.08006	-7.07492	4.78582
19.08425	-7.07492	4.78582
19.08844	-7.07492	4.78582
19.09262	-7.07492	4.78582
19.09681	-7.07492	4.78582
19.10099	-7.07492	4.78582
19.10539	-7.07492	4.78582
19.10959	-7.07492	4.78582
19.11378	-7.07492	4.78582
19.11796	-7.05295	4.78582
19.12215	-7.05295	4.78582
19.12634	-7.07492	4.78582
19.13052	-7.07492	4.78582
19.13479	-7.07492	4.78582
19.13907	-7.07492	4.78582
19.14327	-7.07492	4.78582
19.14747	-7.07492	4.78582
19.15177	-7.07492	4.78582
19.15596	-7.07492	4.78582
19.16014	-7.07492	4.78582
19.16440	-7.07492	4.78582
19.16868	-7.07492	4.78582
19.17287	-7.07492	4.78582
19.17706	-7.07492	4.78582
19.18124	-7.07492	4.78582
19.18543	-7.07492	4.78582
19.18961	-7.09689	4.78582
19.19381	-7.09689	4.78582
19.19811	-7.09689	4.78582
19.20232	-7.09689	4.78582
19.20651	-7.09689	4.78582
19.21069	-7.09689	4.78582
19.21488	-7.09689	4.78582
19.21907	-7.09689	4.78582
19.22326	-7.09689	4.78582
19.22763	-7.09689	4.78582
19.23185	-7.11886	4.78582
19.23604	-7.11886	4.78582
19.24023	-7.11886	4.78582
19.24441	-7.14084	4.78582
19.24861	-7.14084	4.78582
19.25290	-7.14084	4.78582
19.25716	-7.14084	4.78582
19.26142	-7.14084	4.78582
19.26561	-7.14084	4.78582
19.26980	-7.16281	4.78582
19.27399	-7.16281	4.78582
19.27817	-7.16281	4.78582
19.28235	-7.16281	4.78582
19.28666	-7.16281	4.78582
19.29095	-7.16281	4.78582
19.29517	-7.18478	4.78582
19.29936	-7.18478	4.78582
19.30354	-7.18478	4.78582
19.30773	-7.20675	4.78582
19.31192	-7.20675	4.78582
19.31610	-7.20675	4.78582
19.32039	-7.20675	4.78582
19.32460	-7.22873	4.78582
19.32878	-7.22873	4.78582
19.33297	-7.22873	4.78582
19.33715	-7.22873	4.78582
19.34134	-7.25070	4.78582
19.34552	-7.25070	4.78582
19.34997	-7.27267	4.78582
19.35429	-7.27267	4.78582
19.35847	-7.27267	4.78582
19.36266	-7.27267	4.78582
19.36685	-7.27267	4.78582
19.37103	-7.29464	4.78582
19.37519	-7.29464	4.78582
19.37946	-7.31662	4.78582
19.38371	-7.31662	4.78582
19.38790	-7.31662	4.78582
19.39210	-7.31662	4.78582
19.39629	-7.31662	4.78582
19.40048	-7.33859	4.78582
19.40466	-7.33859	4.78582
19.40894	-7.33859	4.78582
19.41322	-7.36056	4.78582
19.41742	-7.36056	4.78582
19.42161	-7.36056	4.78582
19.42580	-7.38254	4.78582
19.42998	-7.38254	4.78582
19.43416	-7.38254	4.78582
19.43835	-7.38254	4.78582
19.44265	-7.40451	4.78582
19.44686	-7.40451	4.78582
19.45107	-7.40451	4.78582
19.45537	-7.40451	4.78582
19.45955	-7.42648	4.78582
19.46374	-7.42648	4.78582
19.46792	-7.44845	4.78582
19.47233	-7.44845	4.78582
19.47653	-7.44845	4.78582
19.48072	-7.44845	4.78582
19.48491	-7.44845	4.78582
19.48909	-7.47043	4.78582
19.49328	-7.47043	4.78582
19.49746	-7.47043	4.78582
19.50174	-7.49240	4.78582
19.50599	-7.49240	4.78582
19.51019	-7.49240	4.78582
19.51437	-7.49240	4.78582
19.51856	-7.51437	4.78582
19.52275	-7.51437	4.78582
19.52693	-7.51437	4.78582
19.53119	-7.53634	4.78582
19.53547	-7.53634	4.78582
19.53967	-7.53634	4.78582
19.54385	-7.53634	4.78582
19.54806	-7.53634	4.78582
19.55225	-7.53634	4.78582
19.55655	-7.55832	4.78582
19.56073	-7.55832	4.78582
19.56503	-7.58029	4.78582
19.56924	-7.58029	4.78582
19.57342	-7.58029	4.78582
19.57761	-7.58029	4.78582
19.58179	-7.58029	4.78582
19.58598	-7.58029	4.78582
19.59016	-7.60226	4.78582
19.59454	-7.60226	4.78582
19.59875	-7.60226	4.78582
19.60294	-7.60226	4.78582
19.60714	-7.62423	4.78582
19.61133	-7.62423	4.78582
19.61552	-7.62423	4.78582
19.61971	-7.62423	4.78582
19.62397	-7.62423	4.78582
19.62824	-7.62423	4.78582
19.63243	-7.64621	4.78582
19.63662	-7.64621	4.78582
19.64081	-7.64621	4.78582
19.64499	-7.64621	4.78582
19.64920	-7.64621	4.78582
19.65346	-7.66818	4.78582
19.65784	-7.66818	4.78582
19.66204	-7.66818	4.78582
19.66623	-7.66818	4.78582
19.67042	-7.66818	4.78582
19.67461	-7.66818	4.78582
19.67880	-7.66818	4.78582
19.68298	-7.69015	4.78582
19.68729	-7.69015	4.78582
19.69149	-7.69015	4.78582
19.69568	-7.69015	4.78582
19.69987	-7.69015	4.78582
19.70405	-7.71213	4.78582
19.70824	-7.71213	4.78582
19.71242	-7.71213	4.78582
19.71681	-7.71213	4.78582
19.72102	-7.71213	4.78582
19.72520	-7.71213	4.78582
19.72939	-7.73410	4.78582
19.73357	-7.73410	4.78582
19.73776	-7.73410	4.78582
19.74194	-7.73410	4.78582
19.74621	-7.73410	4.78582
19.75049	-7.73410	4.78582
19.75469	-7.73410	4.78582
19.75898	-7.73410	4.78582
19.76317	-7.75607	4.78582
19.76735	-7.75607	4.78582
19.77154	-7.75607	4.78582
19.77578	-7.75607	4.78582
19.78006	-7.75607	4.78582
19.78426	-7.75607	4.78582
19.78845	-7.75607	4.78582
19.79263	-7.75607	4.78582
19.79681	-7.75607	4.78582
19.80100	-7.77804	4.78582
19.80518	-7.77804	4.78582
19.80948	-7.75607	4.78582
19.81368	-7.77804	4.78582
19.81787	-7.77804	4.78582
19.82205	-7.75607	4.78582
19.82624	-7.77804	4.78582
19.83042	-7.77804	4.78582
19.83460	-7.77804	4.78582
19.83897	-7.77804	4.78582
19.84318	-7.77804	4.78582
19.84737	-7.77804	4.78582
19.85157	-7.77804	4.78582
19.85577	-7.77804	4.78582
19.86006	-7.77804	4.78582
19.86425	-7.77804	4.78582
19.86850	-7.77804	4.78582
19.87278	-7.80002	4.78582
19.87698	-7.77804	4.78582
19.88117	-7.77804	4.78582
19.88536	-7.80002	4.78582
19.88954	-7.80002	4.78582
19.89373	-7.77804	4.78582
19.89798	-7.77804	4.78582
19.90225	-7.80002	4.78582
19.90645	-7.77804	4.78582
19.91064	-7.77804	4.78582
19.91483	-7.80002	4.78582
19.91901	-7.77804	4.78582
19.92319	-7.80002	4.78582
19.92737	-7.80002	4.78582
19.93167	-7.77804	4.78582
19.93587	-7.80002	4.78582
19.94006	-7.80002	4.78582
19.94425	-7.80002	4.78582
19.94845	-7.80002	4.78582
19.95265	-7.80002	4.78582
19.95683	-7.80002	4.78582
19.96134	-7.77804	4.78582
19.96554	-7.77804	4.78582
19.96974	-7.80002	4.78582
19.97393	-7.77804	4.78582
19.97811	-7.80002	4.78582
19.98230	-7.80002	4.78582
19.98648	-7.80002	4.78582
19.99075	-7.80002	4.78582
19.99502	-7.80002	4.78582
19.99920	-7.77804	4.78582
20.00339	-7.80002	4.78582
20.00757	-7.80002	4.78582
20.01176	-7.80002	4.78582
20.01594	-7.80002	4.78582
20.02018	-7.80002	4.78582
20.02446	-7.80002	4.78582
20.02866	-7.80002	4.78582
20.03284	-7.80002	4.78582
20.03703	-7.80002	4.78582
20.04121	-7.80002	4.78582
20.04540	-7.80002	4.78582
20.04960	-7.80002	4.78582
20.05391	-7.80002	4.78582
20.05811	-7.80002	4.78582
20.06240	-7.80002	4.78582
20.06660	-7.80002	4.78582
20.07078	-7.80002	4.78582
20.07497	-7.80002	4.78582
20.07916	-7.80002	4.78582
20.08355	-7.80002	4.78582
20.08776	-7.80002	4.78582
20.09194	-7.80002	4.78582
20.09613	-7.80002	4.78582
20.10031	-7.80002	4.78582
20.10451	-7.80002	4.78582
20.10870	-7.80002	4.78582
20.11296	-7.80002	4.78582
20.11722	-7.80002	4.78582
20.12142	-7.80002	4.78582
20.12561	-7.80002	4.78582
20.12979	-7.80002	4.78582
20.13398	-7.80002	4.78582
20.13816	-7.80002	4.78582
20.14241	-7.80002	4.78582
20.14669	-7.80002	4.78582
20.15091	-7.80002	4.78582
20.15512	-7.80002	4.78582
20.15931	-7.80002	4.78582
20.16360	-7.80002	4.78582
20.16778	-7.82199	4.78582
20.17197	-7.82199	4.78582
20.17626	-7.80002	4.78582
20.18046	-7.80002	4.78582
20.18465	-7.82199	4.78582
20.18883	-7.80002	4.78582
20.19302	-7.82199	4.78582
20.19720	-7.82199	4.78582
20.20139	-7.82199	4.78582
20.20577	-7.82199	4.78582
20.20997	-7.82199	4.78582
20.21416	-7.82199	4.78582
20.21835	-7.82199	4.78582
20.22253	-7.82199	4.78582
20.22676	-7.82199	4.78582
20.23096	-7.82199	4.78582
20.23525	-7.82199	4.78582
20.23952	-7.82199	4.78582
20.24371	-7.82199	4.78582
20.24790	-7.82199	4.78582
20.25210	-7.82199	4.78582
20.25629	-7.82199	4.78582
20.26049	-7.82199	4.78582
20.26486	-7.82199	4.78582
20.26913	-7.82199	4.78582
20.27334	-7.82199	4.78582
20.27752	-7.82199	4.78582
20.28171	-7.84396	4.78582
20.28592	-7.84396	4.78582
20.29011	-7.82199	4.78582
20.29430	-7.84396	4.78582
20.29859	-7.82199	4.78582
20.30280	-7.82199	4.78582
20.30699	-7.84396	4.78582
20.31118	-7.84396	4.78582
20.31536	-7.84396	4.78582
20.31955	-7.84396	4.78582
20.32373	-7.84396	4.78582
20.32812	-7.84396	4.78582
20.33233	-7.84396	4.78582
20.33652	-7.84396	4.78582
20.34071	-7.84396	4.78582
20.34489	-7.84396	4.78582
20.34909	-7.84396	4.78582
20.35330	-7.84396	4.78582
20.35757	-7.84396	4.78582
20.36183	-7.84396	4.78582
20.36615	-7.84396	4.78582
20.37033	-7.84396	4.78582
20.37452	-7.84396	4.78582
20.37870	-7.84396	4.78582
20.38289	-7.84396	4.78582
20.38714	-7.84396	4.78582
20.39143	-7.84396	4.78582
20.39564	-7.84396	4.78582
20.39983	-7.84396	4.78582
20.40403	-7.86593	4.78582
20.40821	-7.84396	4.78582
20.41240	-7.84396	4.78582
20.41658	-7.84396	4.78582
20.42088	-7.86593	4.78582
20.42509	-7.86593	4.78582
20.42927	-7.84396	4.78582
20.43346	-7.86593	4.78582
20.43765	-7.86593	4.78582
20.44183	-7.86593	4.78582
20.44602	-7.86593	4.78582
20.45044	-7.86593	4.78582
20.45467	-7.86593	4.78582
20.45887	-7.86593	4.78582
20.46307	-7.86593	4.78582
20.46737	-7.86593	4.78582
20.47156	-7.86593	4.78582
20.47575	-7.86593	4.78582
20.48002	-7.86593	4.78582
20.48428	-7.86593	4.78582
20.48847	-7.86593	4.78582
20.49266	-7.86593	4.78582
20.49684	-7.86593	4.78582
20.50103	-7.86593	4.78582
20.50521	-7.86593	4.78582
20.50947	-7.86593	4.78582
20.51374	-7.86593	4.78582
20.51795	-7.86593	4.78582
20.52213	-7.86593	4.78582
20.52632	-7.86593	4.78582
20.53050	-7.86593	4.78582
20.53469	-7.86593	4.78582
20.53887	-7.88791	4.78582
20.54318	-7.88791	4.78582
20.54738	-7.86593	4.78582
20.55159	-7.86593	4.78582
20.55578	-7.86593	4.78582
20.55996	-7.86593	4.78582
20.56415	-7.88791	4.78582
20.56844	-7.88791	4.78582
20.57283	-7.88791	4.78582
20.57704	-7.88791	4.78582
20.58122	-7.86593	4.78582
20.58541	-7.86593	4.78582
20.58960	-7.86593	4.78582
20.59378	-7.86593	4.78582
20.59797	-7.86593	4.78582
20.60225	-7.86593	4.78582
20.60652	-7.86593	4.78582
20.61072	-7.86593	4.78582
20.61490	-7.86593	4.78582
20.61910	-7.86593	4.78582
20.62329	-7.86593	4.78582
20.62747	-7.88791	4.78582
20.63174	-7.88791	4.78582
20.63602	-7.86593	4.78582
20.64022	-7.86593	4.78582
20.64441	-7.86593	4.78582
20.64860	-7.86593	4.78582
20.65279	-7.86593	4.78582
20.65698	-7.86593	4.78582
20.66117	-7.86593	4.78582
20.66547	-7.88791	4.78582
20.66978	-7.86593	4.78582
20.67396	-7.86593	4.78582
20.67815	-7.86593	4.78582
20.68233	-7.86593	4.78582
20.68652	-7.86593	4.78582
20.69070	-7.88791	4.78582
20.69510	-7.88791	4.78582
20.69931	-7.86593	4.78582
20.70349	-7.86593	4.78582
20.70768	-7.88791	4.78582
20.71186	-7.86593	4.78582
20.71604	-7.88791	4.78582
20.72023	-7.88791	4.78582
20.72450	-7.88791	4.78582
20.72876	-7.88791	4.78582
20.73295	-7.88791	4.78582
20.73714	-7.88791	4.78582
20.74132	-7.88791	4.78582
20.74551	-7.88791	4.78582
20.74969	-7.88791	4.78582
20.75394	-7.88791	4.78582
20.75823	-7.88791	4.78582
20.76244	-7.88791	4.78582
20.76662	-7.88791	4.78582
20.77091	-7.88791	4.78582
20.77510	-7.88791	4.78582
20.77929	-7.88791	4.78582
20.78347	-7.88791	4.78582
20.78777	-7.88791	4.78582
20.79197	-7.88791	4.78582
20.79615	-7.88791	4.78582
20.80034	-7.88791	4.78582
20.80452	-7.88791	4.78582
20.80870	-7.88791	4.78582
20.81289	-7.88791	4.78582
20.81726	-7.88791	4.78582
20.82147	-7.88791	4.78582
20.82565	-7.88791	4.78582
20.82984	-7.88791	4.78582
20.83402	-7.88791	4.78582
20.83821	-7.90988	4.78582
20.84239	-7.88791	4.78582
20.84667	-7.90988	4.78582
20.85093	-7.88791	4.78582
20.85513	-7.88791	4.78582
20.85931	-7.90988	4.78582
20.86350	-7.90988	4.78582
20.86768	-7.90988	4.78582
20.87197	-7.90988	4.78582
20.87622	-7.90988	4.78582
20.88050	-7.90988	4.78582
20.88470	-7.90988	4.78582
20.88888	-7.90988	4.78582
20.89307	-7.90988	4.78582
20.89725	-7.90988	4.78582
20.90144	-7.90988	4.78582
20.90562	-7.90988	4.78582
20.90991	-7.90988	4.78582
20.91411	-7.90988	4.78582
20.91830	-7.90988	4.78582
20.92248	-7.90988	4.78582
20.92667	-7.90988	4.78582
20.93085	-7.90988	4.78582
20.93503	-7.90988	4.78582
20.93939	-7.90988	4.78582
20.94359	-7.90988	4.78582
20.94778	-7.90988	4.78582
20.95197	-7.90988	4.78582
20.95615	-7.90988	4.78582
20.96033	-7.90988	4.78582
20.96452	-7.90988	4.78582
20.96879	-7.93185	4.78582
20.97314	-7.90988	4.78582
20.97733	-7.93185	4.78582
20.98152	-7.90988	4.78582
20.98570	-7.93185	4.78582
20.98989	-7.93185	4.78582
20.99407	-7.90988	4.78582
20.99831	-7.93185	4.78582
21.00259	-7.90988	4.78582
21.00679	-7.90988	4.78582
21.01097	-7.90988	4.78582
21.01517	-7.90988	4.78582
21.01936	-7.90988	4.78582
21.02354	-7.93185	4.78582
21.02773	-7.93185	4.78582
21.03202	-7.90988	4.78582
21.03622	-7.93185	4.78582
21.04041	-7.93185	4.78582
21.04459	-7.90988	4.78582
21.04878	-7.90988	4.78582
21.05296	-7.93185	4.78582
21.05715	-7.93185	4.78582
21.06155	-7.93185	4.78582
21.06576	-7.93185	4.78582
21.06995	-7.90988	4.78582
21.07424	-7.90988	4.78582
21.07842	-7.90988	4.78582
21.08261	-7.93185	4.78582
21.08679	-7.90988	4.78582
21.09108	-7.90988	4.78582
21.09537	-7.90988	4.78582
21.09957	-7.90988	4.78582
21.10375	-7.90988	4.78582
21.10795	-7.90988	4.78582
21.11214	-7.90988	4.78582
21.11632	-7.93185	4.78582
21.12060	-7.90988	4.78582
21.12488	-7.90988	4.78582
21.12908	-7.90988	4.78582
21.13327	-7.93185	4.78582
21.13746	-7.90988	4.78582
21.14164	-7.90988	4.78582
21.14583	-7.90988	4.78582
21.15001	-7.90988	4.78582
21.15431	-7.90988	4.78582
21.15852	-7.90988	4.78582
21.16271	-7.90988	4.78582
21.16690	-7.90988	4.78582
21.17110	-7.90988	4.78582
21.17539	-7.90988	4.78582
21.17957	-7.90988	4.78582
21.18412	-7.90988	4.78582
21.18835	-7.90988	4.78582
21.19254	-7.90988	4.78582
21.19672	-7.90988	4.78582
21.20091	-7.90988	4.78582
21.20510	-7.90988	4.78582
21.20928	-7.90988	4.78582
21.21355	-7.88791	4.78582
21.21782	-7.90988	4.78582
21.22202	-7.90988	4.78582
21.22621	-7.90988	4.78582
21.23039	-7.90988	4.78582
21.23458	-7.88791	4.78582
21.23877	-7.88791	4.78582
21.24303	-7.88791	4.78582
21.24729	-7.90988	4.78582
21.25150	-7.88791	4.78582
21.25569	-7.88791	4.78582
21.25988	-7.88791	4.78582
21.26406	-7.88791	4.78582
21.26823	-7.88791	4.78582
21.27239	-7.88791	4.78582
21.27675	-7.88791	4.78582
21.28093	-7.88791	4.78582
21.28512	-7.88791	4.78582
21.28928	-7.88791	4.78582
21.29345	-7.88791	4.78582
21.29761	-7.88791	4.78582
21.30178	-7.88791	4.78582
21.30614	-7.88791	4.78582
21.31033	-7.88791	4.78582
21.31449	-7.88791	4.78582
21.31866	-7.88791	4.78582
21.32282	-7.88791	4.78582
21.32698	-7.88791	4.78582
21.33115	-7.88791	4.78582
21.33542	-7.88791	4.78582
21.33965	-7.86593	4.78582
21.34382	-7.88791	4.78582
21.34798	-7.86593	4.78582
21.35215	-7.88791	4.78582
21.35632	-7.88791	4.78582
21.36048	-7.86593	4.78582
21.36471	-7.86593	4.78582
21.36899	-7.86593	4.78582
21.37318	-7.86593	4.78582
21.37747	-7.86593	4.78582
21.38166	-7.86593	4.78582
21.38585	-7.86593	4.78582
21.39003	-7.86593	4.78582
21.39422	-7.86593	4.78582
21.39854	-7.86593	4.78582
21.40275	-7.86593	4.78582
21.40694	-7.86593	4.78582
21.41113	-7.86593	4.78582
21.41532	-7.84396	4.78582
21.41951	-7.86593	4.78582
21.42369	-7.86593	4.78582
21.42811	-7.84396	4.78582
21.43232	-7.86593	4.78582
21.43651	-7.86593	4.78582
21.44070	-7.84396	4.78582
21.44489	-7.84396	4.78582
21.44907	-7.86593	4.78582
21.45327	-7.84396	4.78582
21.45756	-7.84396	4.78582
21.46182	-7.86593	4.78582
21.46602	-7.86593	4.78582
21.47021	-7.84396	4.78582
21.47440	-7.84396	4.78582
21.47869	-7.86593	4.78582
21.48287	-7.84396	4.78582
21.48714	-7.84396	4.78582
21.49142	-7.84396	4.78582
21.49561	-7.84396	4.78582
21.49980	-7.84396	4.78582
21.50399	-7.84396	4.78582
21.50817	-7.84396	4.78582
21.51235	-7.84396	4.78582
21.51654	-7.84396	4.78582
21.52083	-7.84396	4.78582
21.52504	-7.84396	4.78582
21.52922	-7.84396	4.78582
21.53341	-7.84396	4.78582
21.53760	-7.84396	4.78582
21.54178	-7.84396	4.78582
21.54596	-7.84396	4.78582
21.55039	-7.84396	4.78582
21.55461	-7.84396	4.78582
21.55880	-7.84396	4.78582
21.56300	-7.82199	4.78582
21.56719	-7.82199	4.78582
21.57138	-7.84396	4.78582
21.57557	-7.84396	4.78582
21.57996	-7.84396	4.78582
21.58422	-7.84396	4.78582
21.58842	-7.82199	4.78582
21.59260	-7.82199	4.78582
21.59679	-7.82199	4.78582
21.60098	-7.82199	4.78582
21.60516	-7.82199	4.78582
21.60941	-7.82199	4.78582
21.61369	-7.82199	4.78582
21.61789	-7.82199	4.78582
21.62208	-7.82199	4.78582
21.62626	-7.84396	4.78582
21.63045	-7.82199	4.78582
21.63463	-7.82199	4.78582
21.63883	-7.82199	4.78582
21.64314	-7.82199	4.78582
21.64734	-7.82199	4.78582
21.65155	-7.82199	4.78582
21.65574	-7.82199	4.78582
21.65993	-7.82199	4.78582
21.66412	-7.82199	4.78582
21.66830	-7.82199	4.78582
21.67271	-7.82199	4.78582
21.67691	-7.82199	4.78582
21.68120	-7.82199	4.78582
21.68539	-7.82199	4.78582
21.68958	-7.82199	4.78582
21.69376	-7.82199	4.78582
21.69795	-7.82199	4.78582
21.70222	-7.82199	4.78582
21.70648	-7.82199	4.78582
21.71067	-7.82199	4.78582
21.71486	-7.82199	4.78582
21.71905	-7.82199	4.78582
21.72323	-7.80002	4.78582
21.72742	-7.80002	4.78582
21.73168	-7.80002	4.78582
21.73596	-7.80002	4.78582
21.74015	-7.80002	4.78582
21.74434	-7.80002	4.78582
21.74853	-7.80002	4.78582
21.75273	-7.80002	4.78582
21.75693	-7.80002	4.78582
21.76112	-7.80002	4.78582
21.76542	-7.80002	4.78582
21.76963	-7.80002	4.78582
21.77382	-7.80002	4.78582
21.77801	-7.80002	4.78582
21.78230	-7.80002	4.78582
21.78648	-7.77804	4.78582
21.79067	-7.77804	4.78582
21.79508	-7.77804	4.78582
21.79930	-7.77804	4.78582
21.80349	-7.77804	4.78582
21.80768	-7.77804	4.78582
21.81186	-7.77804	4.78582
21.81605	-7.77804	4.78582
21.82023	-7.75607	4.78582
21.82450	-7.75607	4.78582
21.82876	-7.75607	4.78582
21.83296	-7.75607	4.78582
21.83715	-7.75607	4.78582
21.84134	-7.75607	4.78582
21.84552	-7.73410	4.78582
21.84971	-7.73410	4.78582
21.85398	-7.73410	4.78582
21.85826	-7.73410	4.78582
21.86247	-7.73410	4.78582
21.86666	-7.73410	4.78582
21.87085	-7.71213	4.78582
21.87503	-7.71213	4.78582
21.87919	-7.71213	4.78582
21.88348	-7.71213	4.78582
21.88777	-7.71213	4.78582
21.89197	-7.71213	4.78582
21.89615	-7.71213	4.78582
21.90034	-7.69015	4.78582
21.90452	-7.71213	4.78582
21.90871	-7.71213	4.78582
21.91289	-7.69015	4.78582
21.91728	-7.69015	4.78582
21.92149	-7.69015	4.78582
21.92567	-7.66818	4.78582
21.92986	-7.69015	4.78582
21.93404	-7.69015	4.78582
21.93823	-7.69015	4.78582
21.94242	-7.66818	4.78582
21.94670	-7.66818	4.78582
21.95099	-7.66818	4.78582
21.95520	-7.66818	4.78582
21.95939	-7.66818	4.78582
21.96357	-7.66818	4.78582
21.96775	-7.64621	4.78582
21.97198	-7.64621	4.78582
21.97624	-7.64621	4.78582
21.98053	-7.66818	4.78582
21.98484	-7.64621	4.78582
21.98903	-7.62423	4.78582
21.99321	-7.62423	4.78582
21.99740	-7.64621	4.78582
22.00158	-7.62423	4.78582
22.00576	-7.62423	4.78582
22.01006	-7.62423	4.78582
22.01426	-7.62423	4.78582
22.01845	-7.62423	4.78582
22.02264	-7.62423	4.78582
22.02682	-7.62423	4.78582
22.03101	-7.60226	4.78582
22.03519	-7.60226	4.78582
22.03959	-7.60226	4.78582
22.04379	-7.60226	4.78582
22.04798	-7.60226	4.78582
22.05218	-7.60226	4.78582
22.05637	-7.60226	4.78582
22.06056	-7.58029	4.78582
22.06474	-7.58029	4.78582
22.06902	-7.58029	4.78582
22.07328	-7.58029	4.78582
22.07747	-7.58029	4.78582
22.08166	-7.58029	4.78582
22.08595	-7.58029	4.78582
22.09014	-7.58029	4.78582
22.09432	-7.58029	4.78582
22.09857	-7.55832	4.78582
22.10285	-7.55832	4.78582
22.10706	-7.55832	4.78582
22.11125	-7.55832	4.78582
22.11543	-7.55832	4.78582
22.11962	-7.55832	4.78582
22.12380	-7.53634	4.78582
22.12799	-7.55832	4.78582
22.13228	-7.55832	4.78582
22.13648	-7.53634	4.78582
22.14066	-7.53634	4.78582
22.14485	-7.53634	4.78582
22.14903	-7.53634	4.78582
22.15325	-7.53634	4.78582
22.15744	-7.53634	4.78582
22.16184	-7.51437	4.78582
22.16606	-7.51437	4.78582
22.17026	-7.51437	4.78582
22.17444	-7.51437	4.78582
22.17863	-7.51437	4.78582
22.18281	-7.51437	4.78582
22.18711	-7.51437	4.78582
22.19139	-7.51437	4.78582
22.19564	-7.51437	4.78582
22.19984	-7.51437	4.78582
22.20403	-7.51437	4.78582
22.20821	-7.51437	4.78582
22.21240	-7.49240	4.78582
22.21658	-7.51437	4.78582
22.22083	-7.49240	4.78582
22.22511	-7.49240	4.78582
22.22930	-7.49240	4.78582
22.23349	-7.49240	4.78582
22.23768	-7.49240	4.78582
22.24186	-7.49240	4.78582
22.24605	-7.49240	4.78582
22.25023	-7.49240	4.78582
22.25454	-7.49240	4.78582
22.25875	-7.47043	4.78582
22.26294	-7.47043	4.78582
22.26713	-7.49240	4.78582
22.27132	-7.47043	4.78582
22.27550	-7.47043	4.78582
22.27969	-7.47043	4.78582
22.28414	-7.47043	4.78582
22.28845	-7.47043	4.78582
22.29264	-7.47043	4.78582
22.29682	-7.47043	4.78582
22.30101	-7.47043	4.78582
22.30519	-7.47043	4.78582
22.30938	-7.47043	4.78582
22.31364	-7.44845	4.78582
22.31790	-7.47043	4.78582
22.32209	-7.44845	4.78582
22.32627	-7.44845	4.78582
22.33045	-7.44845	4.78582
22.33464	-7.44845	4.78582
22.33882	-7.44845	4.78582
22.34309	-7.44845	4.78582
22.34739	-7.44845	4.78582
22.35160	-7.44845	4.78582
22.35579	-7.44845	4.78582
22.35998	-7.44845	4.78582
22.36417	-7.44845	4.78582
22.36835	-7.44845	4.78582
22.37254	-7.44845	4.78582
22.37684	-7.44845	4.78582
22.38104	-7.44845	4.78582
22.38523	-7.44845	4.78582
22.38952	-7.44845	4.78582
22.39371	-7.44845	4.78582
22.39790	-7.44845	4.78582
22.40209	-7.44845	4.78582
22.40654	-7.44845	4.78582
22.41075	-7.44845	4.78582
22.41494	-7.44845	4.78582
22.41914	-7.42648	4.78582
22.42332	-7.44845	4.78582
22.42751	-7.44845	4.78582
22.43170	-7.44845	4.78582
22.43597	-7.44845	4.78582
22.44023	-7.44845	4.78582
22.44442	-7.44845	4.78582
22.44861	-7.44845	4.78582
22.45285	-7.44845	4.78582
22.45704	-7.42648	4.78582
22.46123	-7.44845	4.78582
22.46549	-7.44845	4.78582
22.46978	-7.44845	4.78582
22.47398	-7.42648	4.78582
22.47817	-7.42648	4.78582
22.48236	-7.42648	4.78582
22.48654	-7.42648	4.78582
22.49083	-7.42648	4.78582
22.49502	-7.42648	4.78582
22.49931	-7.42648	4.78582
22.50351	-7.42648	4.78582
22.50770	-7.42648	4.78582
22.51189	-7.42648	4.78582
22.51607	-7.42648	4.78582
22.52026	-7.42648	4.78582
22.52444	-7.42648	4.78582
22.52884	-7.42648	4.78582
22.53306	-7.42648	4.78582
22.53724	-7.40451	4.78582
22.54143	-7.40451	4.78582
22.54561	-7.42648	4.78582
22.54979	-7.42648	4.78582
22.55400	-7.40451	4.78582
22.55828	-7.40451	4.78582
22.56255	-7.42648	4.78582
22.56675	-7.42648	4.78582
22.57093	-7.40451	4.78582
22.57514	-7.40451	4.78582
22.57932	-7.40451	4.78582
22.58351	-7.40451	4.78582
22.58776	-7.40451	4.78582
22.59215	-7.40451	4.78582
22.59634	-7.40451	4.78582
22.60053	-7.40451	4.78582
22.60473	-7.40451	4.78582
22.60892	-7.40451	4.78582
22.61310	-7.40451	4.78582
22.61729	-7.38254	4.78582
22.62158	-7.40451	4.78582
22.62578	-7.40451	4.78582
22.62997	-7.38254	4.78582
22.63415	-7.38254	4.78582
22.63834	-7.38254	4.78582
22.64252	-7.38254	4.78582
22.64671	-7.38254	4.78582
22.65110	-7.38254	4.78582
22.65533	-7.38254	4.78582
22.65953	-7.38254	4.78582
22.66372	-7.38254	4.78582
22.66790	-7.38254	4.78582
22.67209	-7.38254	4.78582
22.67627	-7.38254	4.78582
22.68055	-7.38254	4.78582
22.68482	-7.38254	4.78582
22.68901	-7.38254	4.78582
22.69330	-7.38254	4.78582
22.69749	-7.36056	4.78582
22.70168	-7.38254	4.78582
22.70586	-7.38254	4.78582
22.71011	-7.36056	4.78582
22.71439	-7.36056	4.78582
22.71860	-7.36056	4.78582
22.72279	-7.36056	4.78582
22.72697	-7.36056	4.78582
22.73116	-7.36056	4.78582
22.73535	-7.36056	4.78582
22.73953	-7.36056	4.78582
22.74384	-7.36056	4.78582
22.74804	-7.36056	4.78582
22.75225	-7.36056	4.78582
22.75644	-7.36056	4.78582
22.76064	-7.36056	4.78582
22.76483	-7.36056	4.78582
22.76901	-7.36056	4.78582
22.77346	-7.36056	4.78582
22.77767	-7.36056	4.78582
22.78186	-7.36056	4.78582
22.78604	-7.36056	4.78582
22.79023	-7.36056	4.78582
22.79453	-7.36056	4.78582
22.79871	-7.38254	4.78582
22.80298	-7.36056	4.78582
22.80726	-7.36056	4.78582
22.81145	-7.36056	4.78582
22.81564	-7.36056	4.78582
22.81982	-7.36056	4.78582
22.82400	-7.38254	4.78582
22.82819	-7.38254	4.78582
22.83244	-7.38254	4.78582
22.83672	-7.38254	4.78582
22.84091	-7.38254	4.78582
22.84510	-7.38254	4.78582
22.84928	-7.38254	4.78582
22.85349	-7.38254	4.78582
22.85768	-7.38254	4.78582
22.86187	-7.38254	4.78582
22.86618	-7.38254	4.78582
22.87038	-7.38254	4.78582
22.87457	-7.38254	4.78582
22.87876	-7.40451	4.78582
22.88295	-7.40451	4.78582
22.88714	-7.40451	4.78582
22.89133	-7.40451	4.78582
22.89586	-7.40451	4.78582
22.90006	-7.40451	4.78582
22.90425	-7.40451	4.78582
22.90843	-7.42648	4.78582
22.91262	-7.42648	4.78582
22.91680	-7.42648	4.78582
22.92098	-7.42648	4.78582
22.92525	-7.42648	4.78582
22.92952	-7.42648	4.78582
22.93372	-7.44845	4.78582
22.93791	-7.44845	4.78582
22.94209	-7.44845	4.78582
22.94628	-7.44845	4.78582
22.95046	-7.44845	4.78582
22.95474	-7.44845	4.78582
22.95903	-7.47043	4.78582
22.96321	-7.47043	4.78582
22.96739	-7.47043	4.78582
22.97158	-7.47043	4.78582
22.97577	-7.47043	4.78582
22.97995	-7.47043	4.78582
22.98414	-7.47043	4.78582
22.98843	-7.49240	4.78582
22.99263	-7.49240	4.78582
22.99694	-7.47043	4.78582
23.00113	-7.49240	4.78582
23.00531	-7.49240	4.78582
23.00950	-7.49240	4.78582
23.01368	-7.51437	4.78582
23.01810	-7.51437	4.78582
23.02231	-7.51437	4.78582
23.02649	-7.49240	4.78582
23.03068	-7.51437	4.78582
23.03486	-7.51437	4.78582
23.03904	-7.51437	4.78582
23.04319	-7.51437	4.78582
23.04745	-7.51437	4.78582
23.05170	-7.53634	4.78582
23.05591	-7.53634	4.78582
23.06010	-7.53634	4.78582
23.06430	-7.53634	4.78582
23.06849	-7.53634	4.78582
23.07268	-7.53634	4.78582
23.07692	-7.53634	4.78582
23.08121	-7.55832	4.78582
23.08541	-7.55832	4.78582
23.08960	-7.55832	4.78582
23.09379	-7.55832	4.78582
23.09807	-7.55832	4.78582
23.10226	-7.55832	4.78582
23.10644	-7.55832	4.78582
23.11074	-7.58029	4.78582
23.11494	-7.58029	4.78582
23.11915	-7.58029	4.78582
23.12333	-7.58029	4.78582
23.12752	-7.58029	4.78582
23.13170	-7.58029	4.78582
23.13588	-7.60226	4.78582
23.14029	-7.58029	4.78582
23.14450	-7.60226	4.78582
23.14868	-7.60226	4.78582
23.15289	-7.60226	4.78582
23.15709	-7.60226	4.78582
23.16127	-7.60226	4.78582
23.16546	-7.60226	4.78582
23.16973	-7.60226	4.78582
23.17399	-7.62423	4.78582
23.17820	-7.62423	4.78582
23.18239	-7.62423	4.78582
23.18657	-7.62423	4.78582
23.19076	-7.62423	4.78582
23.19494	-7.62423	4.78582
23.19933	-7.62423	4.78582
23.20361	-7.62423	4.78582
23.20781	-7.62423	4.78582
23.21199	-7.62423	4.78582
23.21618	-7.64621	4.78582
23.22037	-7.64621	4.78582
23.22455	-7.64621	4.78582
23.22874	-7.64621	4.78582
23.23303	-7.64621	4.78582
23.23725	-7.64621	4.78582
23.24143	-7.64621	4.78582
23.24562	-7.64621	4.78582
23.24980	-7.66818	4.78582
23.25401	-7.64621	4.78582
23.25820	-7.64621	4.78582
23.26264	-7.66818	4.78582
23.26685	-7.64621	4.78582
23.27104	-7.66818	4.78582
23.27519	-7.66818	4.78582
23.27939	-7.66818	4.78582
23.28357	-7.66818	4.78582
23.28776	-7.66818	4.78582
23.29201	-7.66818	4.78582
23.29628	-7.66818	4.78582
23.30059	-7.66818	4.78582
23.30478	-7.66818	4.78582
23.30897	-7.66818	4.78582
23.31315	-7.69015	4.78582
23.31733	-7.69015	4.78582
23.32159	-7.69015	4.78582
23.32587	-7.69015	4.78582
23.33007	-7.69015	4.78582
23.33425	-7.69015	4.78582
23.33844	-7.69015	4.78582
23.34263	-7.69015	4.78582
23.34683	-7.69015	4.78582
23.35103	-7.69015	4.78582
23.35533	-7.69015	4.78582
23.35954	-7.69015	4.78582
23.36373	-7.69015	4.78582
23.36792	-7.69015	4.78582
23.37211	-7.71213	4.78582
23.37629	-7.71213	4.78582
23.38049	-7.69015	4.78582
23.38490	-7.71213	4.78582
23.38911	-7.71213	4.78582
23.39330	-7.71213	4.78582
23.39750	-7.71213	4.78582
23.40181	-7.71213	4.78582
23.40600	-7.71213	4.78582
23.41019	-7.71213	4.78582
23.41446	-7.71213	4.78582
23.41875	-7.71213	4.78582
23.42295	-7.71213	4.78582
23.42715	-7.71213	4.78582
23.43135	-7.71213	4.78582
23.43554	-7.71213	4.78582
23.43973	-7.71213	4.78582
23.44399	-7.73410	4.78582
23.44828	-7.73410	4.78582
23.45254	-7.73410	4.78582
23.45675	-7.73410	4.78582
23.46095	-7.73410	4.78582
23.46515	-7.73410	4.78582
23.46934	-7.73410	4.78582
23.47353	-7.73410	4.78582
23.47784	-7.73410	4.78582
23.48205	-7.73410	4.78582
23.48625	-7.73410	4.78582
23.49044	-7.73410	4.78582
23.49463	-7.73410	4.78582
23.49882	-7.73410	4.78582
23.50314	-7.73410	4.78582
23.50755	-7.75607	4.78582
23.51175	-7.75607	4.78582
23.51595	-7.75607	4.78582
23.52014	-7.75607	4.78582
23.52433	-7.75607	4.78582
23.52852	-7.75607	4.78582
23.53271	-7.75607	4.78582
23.53701	-7.75607	4.78582
23.54128	-7.75607	4.78582
23.54548	-7.75607	4.78582
23.54968	-7.75607	4.78582
23.55389	-7.75607	4.78582
23.55809	-7.75607	4.78582
23.56228	-7.75607	4.78582
23.56654	-7.77804	4.78582
23.57083	-7.77804	4.78582
23.57503	-7.75607	4.78582
23.57920	-7.77804	4.78582
23.58339	-7.77804	4.78582
23.58758	-7.77804	4.78582
23.59177	-7.77804	4.78582
23.59596	-7.77804	4.78582
23.60027	-7.77804	4.78582
23.60458	-7.77804	4.78582
23.60877	-7.77804	4.78582
23.61296	-7.77804	4.78582
23.61716	-7.77804	4.78582
23.62135	-7.77804	4.78582
23.62554	-7.77804	4.78582
23.62993	-7.80002	4.78582
23.63415	-7.77804	4.78582
23.63835	-7.77804	4.78582
23.64254	-7.80002	4.78582
23.64673	-7.80002	4.78582
23.65093	-7.80002	4.78582
23.65515	-7.80002	4.78582
23.65947	-7.80002	4.78582
23.66374	-7.80002	4.78582
23.66795	-7.80002	4.78582
23.67214	-7.80002	4.78582
23.67634	-7.80002	4.78582
23.68053	-7.80002	4.78582
23.68472	-7.80002	4.78582
23.68897	-7.80002	4.78582
23.69325	-7.80002	4.78582
23.69746	-7.80002	4.78582
23.70167	-7.80002	4.78582
23.70597	-7.80002	4.78582
23.71017	-7.80002	4.78582
23.71436	-7.82199	4.78582
23.71855	-7.82199	4.78582
23.72290	-7.82199	4.78582
23.72713	-7.82199	4.78582
23.73134	-7.82199	4.78582
23.73553	-7.82199	4.78582
23.73972	-7.82199	4.78582
23.74391	-7.82199	4.78582
23.74809	-7.82199	4.78582
23.75262	-7.82199	4.78582
23.75686	-7.82199	4.78582
23.76107	-7.82199	4.78582
23.76528	-7.82199	4.78582
23.76947	-7.82199	4.78582
23.77367	-7.82199	4.78582
23.77786	-7.84396	4.78582
23.78218	-7.82199	4.78582
23.78646	-7.82199	4.78582
23.79066	-7.82199	4.78582
23.79485	-7.82199	4.78582
23.79905	-7.82199	4.78582
23.80320	-7.82199	4.78582
23.80750	-7.82199	4.78582
23.81176	-7.82199	4.78582
23.81604	-7.82199	4.78582
23.82025	-7.82199	4.78582
23.82444	-7.82199	4.78582
23.82863	-7.84396	4.78582
23.83282	-7.82199	4.78582
23.83700	-7.82199	4.78582
23.84119	-7.82199	4.78582
23.84549	-7.84396	4.78582
23.84970	-7.82199	4.78582
23.85389	-7.84396	4.78582
23.85807	-7.82199	4.78582
23.86226	-7.82199	4.78582
23.86644	-7.82199	4.78582
23.87063	-7.84396	4.78582
23.87504	-7.82199	4.78582
23.87921	-7.82199	4.78582
23.88340	-7.82199	4.78582
23.88759	-7.84396	4.78582
23.89177	-7.84396	4.78582
23.89595	-7.84396	4.78582
23.90014	-7.82199	4.78582
23.90440	-7.82199	4.78582
23.90877	-7.82199	4.78582
23.91297	-7.82199	4.78582
23.91715	-7.82199	4.78582
23.92134	-7.82199	4.78582
23.92552	-7.82199	4.78582
23.92971	-7.82199	4.78582
23.93396	-7.82199	4.78582
23.93824	-7.82199	4.78582
23.94244	-7.82199	4.78582
23.94662	-7.82199	4.78582
23.95081	-7.82199	4.78582
23.95499	-7.82199	4.78582
23.95919	-7.82199	4.78582
23.96337	-7.82199	4.78582
23.96767	-7.82199	4.78582
23.97187	-7.82199	4.78582
23.97606	-7.80002	4.78582
23.98024	-7.82199	4.78582
23.98443	-7.80002	4.78582
23.98862	-7.80002	4.78582
23.99280	-7.80002	4.78582
23.99720	-7.80002	4.78582
24.00142	-7.80002	4.78582
24.00561	-7.80002	4.78582
24.00995	-7.80002	4.78582
24.01415	-7.80002	4.78582
24.01834	-7.77804	4.78582
24.02253	-7.77804	4.78582
24.02683	-7.77804	4.78582
24.03112	-7.77804	4.78582
24.03532	-7.77804	4.78582
24.03951	-7.77804	4.78582
24.04369	-7.77804	4.78582
24.04788	-7.77804	4.78582
24.05206	-7.77804	4.78582
24.05632	-7.77804	4.78582
24.06059	-7.77804	4.78582
24.06480	-7.77804	4.78582
24.06899	-7.75607	4.78582
24.07317	-7.75607	4.78582
24.07736	-7.75607	4.78582
24.08154	-7.75607	4.78582
24.08573	-7.75607	4.78582
24.09003	-7.75607	4.78582
24.09423	-7.75607	4.78582
24.09842	-7.75607	4.78582
24.10261	-7.75607	4.78582
24.10680	-7.73410	4.78582
24.11110	-7.73410	4.78582
24.11528	-7.73410	4.78582
24.11968	-7.73410	4.78582
24.12389	-7.73410	4.78582
24.12809	-7.71213	4.78582
24.13228	-7.71213	4.78582
24.13647	-7.73410	4.78582
24.14066	-7.71213	4.78582
24.14485	-7.71213	4.78582
24.14912	-7.71213	4.78582
24.15338	-7.71213	4.78582
24.15758	-7.71213	4.78582
24.16176	-7.71213	4.78582
24.16595	-7.69015	4.78582
24.17014	-7.69015	4.78582
24.17432	-7.69015	4.78582
24.17857	-7.69015	4.78582
24.18286	-7.69015	4.78582
24.18707	-7.69015	4.78582
24.19126	-7.69015	4.78582
24.19545	-7.66818	4.78582
24.19963	-7.69015	4.78582
24.20382	-7.66818	4.78582
24.20800	-7.66818	4.78582
24.21241	-7.66818	4.78582
24.21661	-7.66818	4.78582
24.22079	-7.66818	4.78582
24.22498	-7.66818	4.78582
24.22916	-7.64621	4.78582
24.23335	-7.64621	4.78582
24.23756	-7.64621	4.78582
24.24199	-7.64621	4.78582
24.24620	-7.64621	4.78582
24.25040	-7.64621	4.78582
24.25459	-7.64621	4.78582
24.25879	-7.62423	4.78582
24.26298	-7.62423	4.78582
24.26717	-7.62423	4.78582
24.27149	-7.62423	4.78582
24.27576	-7.62423	4.78582
24.27996	-7.62423	4.78582
24.28416	-7.62423	4.78582
24.28835	-7.62423	4.78582
24.29253	-7.62423	4.78582
24.29672	-7.62423	4.78582
24.30096	-7.60226	4.78582
24.30524	-7.60226	4.78582
24.30944	-7.60226	4.78582
24.31373	-7.60226	4.78582
24.31792	-7.60226	4.78582
24.32210	-7.60226	4.78582
24.32629	-7.60226	4.78582
24.33047	-7.58029	4.78582
24.33477	-7.60226	4.78582
24.33898	-7.58029	4.78582
24.34317	-7.58029	4.78582
24.34736	-7.60226	4.78582
24.35155	-7.58029	4.78582
24.35573	-7.58029	4.78582
24.35991	-7.58029	4.78582
24.36434	-7.58029	4.78582
24.36855	-7.58029	4.78582
24.37275	-7.58029	4.78582
24.37694	-7.58029	4.78582
24.38113	-7.58029	4.78582
24.38532	-7.58029	4.78582
24.38950	-7.58029	4.78582
24.39378	-7.58029	4.78582
24.39805	-7.58029	4.78582
24.40225	-7.58029	4.78582
24.40644	-7.58029	4.78582
24.41063	-7.58029	4.78582
24.41492	-7.58029	4.78582
24.41911	-7.58029	4.78582
24.42337	-7.58029	4.78582
24.42765	-7.58029	4.78582
24.43186	-7.58029	4.78582
24.43605	-7.58029	4.78582
24.44023	-7.55832	4.78582
24.44442	-7.55832	4.78582
24.44860	-7.58029	4.78582
24.45279	-7.58029	4.78582
24.45709	-7.58029	4.78582
24.46129	-7.55832	4.78582
24.46548	-7.55832	4.78582
24.46967	-7.58029	4.78582
24.47385	-7.58029	4.78582
24.47804	-7.58029	4.78582
24.48222	-7.55832	4.78582
24.48663	-7.58029	4.78582
24.49085	-7.58029	4.78582
24.49504	-7.58029	4.78582
24.49920	-7.58029	4.78582
24.50339	-7.58029	4.78582
24.50764	-7.58029	4.78582
24.51183	-7.58029	4.78582
24.51622	-7.55832	4.78582
24.52048	-7.58029	4.78582
24.52468	-7.55832	4.78582
24.52887	-7.55832	4.78582
24.53305	-7.58029	4.78582
24.53724	-7.58029	4.78582
24.54143	-7.55832	4.78582
24.54568	-7.55832	4.78582
24.54996	-7.58029	4.78582
24.55416	-7.58029	4.78582
24.55835	-7.58029	4.78582
24.56253	-7.58029	4.78582
24.56672	-7.58029	4.78582
24.57091	-7.58029	4.78582
24.57511	-7.58029	4.78582
24.57942	-7.58029	4.78582
24.58363	-7.58029	4.78582
24.58782	-7.58029	4.78582
24.59200	-7.58029	4.78582
24.59619	-7.58029	4.78582
24.60038	-7.58029	4.78582
24.60457	-7.58029	4.78582
24.60902	-7.58029	4.78582
24.61323	-7.58029	4.78582
24.61754	-7.58029	4.78582
24.62173	-7.58029	4.78582
24.62593	-7.58029	4.78582
24.63012	-7.58029	4.78582
24.63431	-7.58029	4.78582
24.63861	-7.58029	4.78582
24.64289	-7.58029	4.78582
24.64709	-7.58029	4.78582
24.65129	-7.58029	4.78582
24.65548	-7.58029	4.78582
24.65967	-7.58029	4.78582
24.66386	-7.58029	4.78582
24.66812	-7.58029	4.78582
24.67241	-7.60226	4.78582
24.67661	-7.60226	4.78582
24.68080	-7.60226	4.78582
24.68499	-7.60226	4.78582
24.68918	-7.60226	4.78582
24.69337	-7.60226	4.78582
24.69755	-7.60226	4.78582
24.70185	-7.60226	4.78582
24.70605	-7.60226	4.78582
24.71024	-7.60226	4.78582
24.71443	-7.60226	4.78582
24.71872	-7.60226	4.78582
24.72290	-7.62423	4.78582
24.72709	-7.62423	4.78582
24.73152	-7.60226	4.78582
24.73573	-7.60226	4.78582
24.73992	-7.60226	4.78582
24.74412	-7.62423	4.78582
24.74830	-7.62423	4.78582
24.75248	-7.62423	4.78582
24.75667	-7.62423	4.78582
24.76093	-7.62423	4.78582
24.76520	-7.62423	4.78582
24.76940	-7.62423	4.78582
24.77359	-7.62423	4.78582
24.77778	-7.62423	4.78582
24.78197	-7.62423	4.78582
24.78616	-7.62423	4.78582
24.79041	-7.62423	4.78582
24.79469	-7.64621	4.78582
24.79890	-7.64621	4.78582
24.80311	-7.64621	4.78582
24.80730	-7.64621	4.78582
24.81149	-7.64621	4.78582
24.81568	-7.64621	4.78582
24.81999	-7.64621	4.78582
24.82429	-7.64621	4.78582
24.82849	-7.64621	4.78582
24.83269	-7.64621	4.78582
24.83688	-7.64621	4.78582
24.84107	-7.66818	4.78582
24.84526	-7.66818	4.78582
24.84945	-7.66818	4.78582
24.85385	-7.66818	4.78582
24.85806	-7.66818	4.78582
24.86225	-7.66818	4.78582
24.86645	-7.66818	4.78582
24.87064	-7.66818	4.78582
24.87483	-7.66818	4.78582
24.87902	-7.66818	4.78582
24.88331	-7.66818	4.78582
24.88758	-7.66818	4.78582
24.89178	-7.69015	4.78582
24.89597	-7.69015	4.78582
24.90017	-7.69015	4.78582
24.90436	-7.69015	4.78582
24.90855	-7.69015	4.78582
24.91280	-7.69015	4.78582
24.91709	-7.69015	4.78582
24.92141	-7.69015	4.78582
24.92560	-7.69015	4.78582
24.92979	-7.69015	4.78582
24.93398	-7.69015	4.78582
24.93817	-7.69015	4.78582
24.94236	-7.69015	4.78582
24.94667	-7.69015	4.78582
24.95088	-7.69015	4.78582
24.95509	-7.71213	4.78582
24.95928	-7.71213	4.78582
24.96347	-7.69015	4.78582
24.96766	-7.71213	4.78582
24.97186	-7.71213	4.78582
24.97626	-7.71213	4.78582
24.98048	-7.71213	4.78582
24.98468	-7.71213	4.78582
24.98887	-7.71213	4.78582
24.99307	-7.71213	4.78582
24.99726	-7.71213	4.78582
25.00145	-7.71213	4.78582
25.00576	-7.73410	4.78582
25.01005	-7.73410	4.78582
25.01426	-7.73410	4.78582
25.01846	-7.73410	4.78582
25.02277	-7.73410	4.78582
25.02696	-7.73410	4.78582
25.03116	-7.73410	4.78582
25.03542	-7.73410	4.78582
25.03971	-7.73410	4.78582
25.04391	-7.73410	4.78582
25.04811	-7.73410	4.78582
25.05230	-7.75607	4.78582
25.05649	-7.75607	4.78582
25.06068	-7.75607	4.78582
25.06487	-7.75607	4.78582
25.06917	-7.75607	4.78582
25.07338	-7.75607	4.78582
25.07757	-7.75607	4.78582
25.08176	-7.75607	4.78582
25.08595	-7.75607	4.78582
25.09014	-7.77804	4.78582
25.09510	-7.77804	4.78582
25.09947	-7.77804	4.78582
25.10370	-7.77804	4.78582
25.10790	-7.77804	4.78582
25.11209	-7.77804	4.78582
25.11629	-7.77804	4.78582
25.12048	-7.77804	4.78582
25.12478	-7.77804	4.78582
25.12922	-7.80002	4.78582
25.13344	-7.77804	4.78582
25.13763	-7.80002	4.78582
25.14182	-7.80002	4.78582
25.14600	-7.80002	4.78582
25.15019	-7.82199	4.78582
25.15437	-7.82199	4.78582
25.15865	-7.80002	4.78582
25.16290	-7.82199	4.78582
25.16711	-7.82199	4.78582
25.17130	-7.82199	4.78582
25.17549	-7.82199	4.78582
25.17968	-7.82199	4.78582
25.18387	-7.84396	4.78582
25.18813	-7.84396	4.78582
25.19241	-7.84396	4.78582
25.19661	-7.84396	4.78582
25.20080	-7.84396	4.78582
25.20499	-7.84396	4.78582
25.20918	-7.84396	4.78582
25.21336	-7.86593	4.78582
25.21755	-7.86593	4.78582
25.22185	-7.86593	4.78582
25.22615	-7.86593	4.78582
25.23034	-7.86593	4.78582
25.23453	-7.86593	4.78582
25.23872	-7.86593	4.78582
25.24291	-7.88791	4.78582
25.24711	-7.88791	4.78582
25.25154	-7.88791	4.78582
25.25575	-7.88791	4.78582
25.25994	-7.88791	4.78582
25.26413	-7.88791	4.78582
25.26832	-7.90988	4.78582
25.27250	-7.90988	4.78582
25.27669	-7.90988	4.78582
25.28095	-7.90988	4.78582
25.28522	-7.93185	4.78582
25.28943	-7.90988	4.78582
25.29362	-7.93185	4.78582
25.29781	-7.93185	4.78582
25.30200	-7.93185	4.78582
25.30620	-7.93185	4.78582
25.31047	-7.93185	4.78582
25.31476	-7.95382	4.78582
25.31896	-7.95382	4.78582
25.32317	-7.95382	4.78582
25.32747	-7.95382	4.78582
25.33166	-7.95382	4.78582
25.33586	-7.95382	4.78582
25.34005	-7.95382	4.78582
25.34435	-7.95382	4.78582
25.34856	-7.97580	4.78582
25.35275	-7.97580	4.78582
25.35695	-7.97580	4.78582
25.36114	-7.97580	4.78582
25.36533	-7.99777	4.78582
25.36951	-7.99777	4.78582
25.37398	-7.99777	4.78582
25.37820	-7.99777	4.78582
25.38240	-7.99777	4.78582
25.38660	-7.99777	4.78582
25.39079	-7.99777	4.78582
25.39500	-8.01974	4.78582
25.39920	-8.01974	4.78582
25.40349	-8.01974	4.78582
25.40775	-8.01974	4.78582
25.41195	-8.01974	4.78582
25.41614	-8.01974	4.78582
25.42033	-8.04172	4.78582
25.42452	-8.04172	4.78582
25.42883	-8.04172	4.78582
25.43308	-8.04172	4.78582
25.43736	-8.04172	4.78582
25.44156	-8.04172	4.78582
25.44575	-8.04172	4.78582
25.44994	-8.04172	4.78582
25.45413	-8.04172	4.78582
25.45834	-8.06369	4.78582
25.46255	-8.06369	4.78582
25.46687	-8.06369	4.78582
25.47109	-8.06369	4.78582
25.47529	-8.06369	4.78582
25.47948	-8.06369	4.78582
25.48368	-8.06369	4.78582
25.48788	-8.06369	4.78582
25.49207	-8.06369	4.78582
25.49646	-8.06369	4.78582
25.50068	-8.08566	4.78582
25.50487	-8.08566	4.78582
25.50907	-8.08566	4.78582
25.51326	-8.08566	4.78582
25.51746	-8.08566	4.78582
25.52165	-8.08566	4.78582
25.52597	-8.08566	4.78582
25.53036	-8.08566	4.78582
25.53456	-8.08566	4.78582
25.53875	-8.08566	4.78582
25.54295	-8.08566	4.78582
25.54715	-8.08566	4.78582
25.55134	-8.08566	4.78582
25.55561	-8.10763	4.78582
25.55989	-8.10763	4.78582
25.56410	-8.10763	4.78582
25.56829	-8.10763	4.78582
25.57249	-8.10763	4.78582
25.57668	-8.10763	4.78582
25.58087	-8.10763	4.78582
25.58506	-8.10763	4.78582
25.58936	-8.10763	4.78582
25.59357	-8.10763	4.78582
25.59776	-8.10763	4.78582
25.60197	-8.10763	4.78582
25.60616	-8.10763	4.78582
25.61035	-8.10763	4.78582
25.61454	-8.10763	4.78582
25.61891	-8.10763	4.78582
25.62313	-8.10763	4.78582
25.62733	-8.10763	4.78582
25.63163	-8.10763	4.78582
25.63583	-8.10763	4.78582
25.64002	-8.10763	4.78582
25.64421	-8.10763	4.78582
25.64851	-8.10763	4.78582
25.65276	-8.10763	4.78582
25.65696	-8.10763	4.78582
25.66115	-8.10763	4.78582
25.66534	-8.10763	4.78582
25.66953	-8.10763	4.78582
25.67372	-8.10763	4.78582
25.67798	-8.10763	4.78582
25.68226	-8.10763	4.78582
25.68647	-8.10763	4.78582
25.69066	-8.10763	4.78582
25.69485	-8.10763	4.78582
25.69904	-8.10763	4.78582
25.70319	-8.10763	4.78582
25.70738	-8.10763	4.78582
25.71168	-8.08566	4.78582
25.71590	-8.10763	4.78582
25.72009	-8.08566	4.78582
25.72428	-8.08566	4.78582
25.72847	-8.08566	4.78582
25.73277	-8.08566	4.78582
25.73696	-8.08566	4.78582
25.74134	-8.08566	4.78582
25.74555	-8.06369	4.78582
25.74974	-8.08566	4.78582
25.75394	-8.08566	4.78582
25.75813	-8.06369	4.78582
25.76232	-8.06369	4.78582
25.76651	-8.06369	4.78582
25.77080	-8.06369	4.78582
25.77507	-8.06369	4.78582
25.77926	-8.04172	4.78582
25.78346	-8.04172	4.78582
25.78765	-8.04172	4.78582
25.79184	-8.04172	4.78582
25.79603	-8.04172	4.78582
25.80027	-8.04172	4.78582
25.80455	-8.04172	4.78582
25.80875	-8.04172	4.78582
25.81295	-8.04172	4.78582
25.81714	-8.01974	4.78582
25.82133	-8.04172	4.78582
25.82552	-8.01974	4.78582
25.82971	-8.01974	4.78582
25.83413	-8.01974	4.78582
25.83834	-8.01974	4.78582
25.84253	-7.99777	4.78582
25.84672	-7.99777	4.78582
25.85091	-7.99777	4.78582
25.85511	-7.99777	4.78582
25.85930	-7.99777	4.78582
25.86369	-7.99777	4.78582
25.86790	-7.97580	4.78582
25.87209	-7.97580	4.78582
25.87629	-7.97580	4.78582
25.88048	-7.95382	4.78582
25.88466	-7.95382	4.78582
25.88885	-7.97580	4.78582
25.89312	-7.95382	4.78582
25.89736	-7.95382	4.78582
25.90155	-7.95382	4.78582
25.90574	-7.95382	4.78582
25.90992	-7.93185	4.78582
25.91411	-7.93185	4.78582
25.91829	-7.93185	4.78582
25.92255	-7.93185	4.78582
25.92682	-7.93185	4.78582
25.93102	-7.90988	4.78582
25.93530	-7.90988	4.78582
25.93948	-7.90988	4.78582
25.94366	-7.90988	4.78582
25.94785	-7.88791	4.78582
25.95203	-7.88791	4.78582
25.95633	-7.88791	4.78582
25.96053	-7.86593	4.78582
25.96472	-7.86593	4.78582
25.96890	-7.86593	4.78582
25.97309	-7.86593	4.78582
25.97727	-7.86593	4.78582
25.98146	-7.86593	4.78582
25.98588	-7.84396	4.78582
25.99009	-7.84396	4.78582
25.99428	-7.84396	4.78582
25.99847	-7.84396	4.78582
26.00265	-7.82199	4.78582
26.00684	-7.82199	4.78582
26.01102	-7.80002	4.78582
26.01529	-7.80002	4.78582
26.01954	-7.80002	4.78582
26.02374	-7.80002	4.78582
26.02792	-7.80002	4.78582
26.03211	-7.80002	4.78582
26.03640	-7.80002	4.78582
26.04058	-7.77804	4.78582
26.04484	-7.77804	4.78582
26.04911	-7.77804	4.78582
26.05331	-7.75607	4.78582
26.05750	-7.75607	4.78582
26.06168	-7.75607	4.78582
26.06587	-7.73410	4.78582
26.07005	-7.73410	4.78582
26.07424	-7.73410	4.78582
26.07854	-7.73410	4.78582
26.08275	-7.71213	4.78582
26.08694	-7.71213	4.78582
26.09113	-7.71213	4.78582
26.09532	-7.69015	4.78582
26.09951	-7.69015	4.78582
26.10370	-7.69015	4.78582
26.10810	-7.69015	4.78582
26.11231	-7.69015	4.78582
26.11650	-7.66818	4.78582
26.12068	-7.66818	4.78582
26.12487	-7.66818	4.78582
26.12905	-7.64621	4.78582
26.13324	-7.64621	4.78582
26.13762	-7.64621	4.78582
26.14187	-7.64621	4.78582
26.14606	-7.64621	4.78582
26.15025	-7.62423	4.78582
26.15443	-7.62423	4.78582
26.15862	-7.60226	4.78582
26.16280	-7.60226	4.78582
26.16706	-7.60226	4.78582
26.17134	-7.58029	4.78582
26.17554	-7.58029	4.78582
26.17972	-7.58029	4.78582
26.18391	-7.58029	4.78582
26.18809	-7.55832	4.78582
26.19228	-7.55832	4.78582
26.19646	-7.55832	4.78582
26.20076	-7.55832	4.78582
26.20497	-7.55832	4.78582
26.20916	-7.53634	4.78582
26.21334	-7.53634	4.78582
26.21753	-7.53634	4.78582
26.22171	-7.51437	4.78582
26.22590	-7.51437	4.78582
26.23028	-7.51437	4.78582
26.23450	-7.49240	4.78582
26.23880	-7.49240	4.78582
26.24299	-7.49240	4.78582
26.24719	-7.49240	4.78582
26.25138	-7.47043	4.78582
26.25557	-7.47043	4.78582
26.25984	-7.47043	4.78582
26.26412	-7.47043	4.78582
26.26832	-7.47043	4.78582
26.27251	-7.44845	4.78582
26.27669	-7.44845	4.78582
26.28088	-7.44845	4.78582
26.28506	-7.44845	4.78582
26.28933	-7.42648	4.78582
26.29361	-7.42648	4.78582
26.29781	-7.42648	4.78582
26.30200	-7.42648	4.78582
26.30619	-7.40451	4.78582
26.31037	-7.40451	4.78582
26.31456	-7.40451	4.78582
26.31874	-7.40451	4.78582
26.32304	-7.40451	4.78582
26.32720	-7.40451	4.78582
26.33139	-7.38254	4.78582
26.33558	-7.38254	4.78582
26.33987	-7.38254	4.78582
26.34406	-7.38254	4.78582
26.34824	-7.38254	4.78582
26.35265	-7.38254	4.78582
26.35686	-7.36056	4.78582
26.36104	-7.36056	4.78582
26.36523	-7.36056	4.78582
26.36942	-7.36056	4.78582
26.37360	-7.36056	4.78582
26.37779	-7.36056	4.78582
26.38205	-7.33859	4.78582
26.38630	-7.33859	4.78582
26.39049	-7.33859	4.78582
26.39471	-7.33859	4.78582
26.39890	-7.31662	4.78582
26.40310	-7.31662	4.78582
26.40729	-7.31662	4.78582
26.41155	-7.31662	4.78582
26.41583	-7.31662	4.78582
26.42002	-7.31662	4.78582
26.42421	-7.31662	4.78582
26.42839	-7.29464	4.78582
26.43258	-7.29464	4.78582
26.43677	-7.29464	4.78582
26.44105	-7.29464	4.78582
26.44534	-7.29464	4.78582
26.44955	-7.29464	4.78582
26.45373	-7.27267	4.78582
26.45794	-7.27267	4.78582
26.46213	-7.27267	4.78582
26.46631	-7.27267	4.78582
26.47050	-7.25070	4.78582
26.47491	-7.27267	4.78582
26.47913	-7.27267	4.78582
26.48332	-7.25070	4.78582
26.48751	-7.25070	4.78582
26.49170	-7.25070	4.78582
26.49588	-7.25070	4.78582
26.50007	-7.25070	4.78582
26.50433	-7.25070	4.78582
26.50859	-7.22873	4.78582
26.51278	-7.22873	4.78582
26.51698	-7.22873	4.78582
26.52117	-7.22873	4.78582
26.52535	-7.22873	4.78582
26.52954	-7.22873	4.78582
26.53381	-7.22873	4.78582
26.53809	-7.22873	4.78582
26.54240	-7.20675	4.78582
26.54658	-7.20675	4.78582
26.55077	-7.20675	4.78582
26.55496	-7.20675	4.78582
26.55915	-7.20675	4.78582
26.56334	-7.20675	4.78582
26.56763	-7.20675	4.78582
26.57183	-7.20675	4.78582
26.57602	-7.18478	4.78582
26.58020	-7.20675	4.78582
26.58439	-7.18478	4.78582
26.58858	-7.18478	4.78582
26.59276	-7.18478	4.78582
26.59716	-7.18478	4.78582
26.60136	-7.18478	4.78582
26.60555	-7.16281	4.78582
26.60974	-7.16281	4.78582
26.61393	-7.16281	4.78582
26.61812	-7.18478	4.78582
26.62230	-7.18478	4.78582
26.62657	-7.16281	4.78582
26.63083	-7.16281	4.78582
26.63502	-7.16281	4.78582
26.63919	-7.14084	4.78582
26.64348	-7.14084	4.78582
26.64767	-7.14084	4.78582
26.65185	-7.14084	4.78582
26.65611	-7.14084	4.78582
26.66038	-7.14084	4.78582
26.66458	-7.14084	4.78582
26.66877	-7.14084	4.78582
26.67296	-7.11886	4.78582
26.67714	-7.11886	4.78582
26.68132	-7.11886	4.78582
26.68551	-7.11886	4.78582
26.68980	-7.11886	4.78582
26.69400	-7.11886	4.78582
26.69819	-7.11886	4.78582
26.70238	-7.14084	4.78582
26.70657	-7.11886	4.78582
26.71076	-7.11886	4.78582
26.71495	-7.11886	4.78582
26.71937	-7.09689	4.78582
26.72358	-7.09689	4.78582
26.72777	-7.09689	4.78582
26.73195	-7.09689	4.78582
26.73614	-7.09689	4.78582
26.74033	-7.09689	4.78582
26.74461	-7.09689	4.78582
26.74887	-7.09689	4.78582
26.75312	-7.07492	4.78582
26.75732	-7.07492	4.78582
26.76151	-7.07492	4.78582
26.76569	-7.07492	4.78582
26.76988	-7.07492	4.78582
26.77407	-7.07492	4.78582
26.77832	-7.07492	4.78582
26.78260	-7.07492	4.78582
26.78679	-7.07492	4.78582
26.79098	-7.07492	4.78582
26.79517	-7.07492	4.78582
26.79936	-7.07492	4.78582
26.80354	-7.07492	4.78582
26.80773	-7.07492	4.78582
26.81202	-7.05295	4.78582
26.81623	-7.07492	4.78582
26.82042	-7.07492	4.78582
26.82460	-7.05295	4.78582
26.82879	-7.05295	4.78582
26.83297	-7.05295	4.78582
26.83716	-7.05295	4.78582
26.84156	-7.05295	4.78582
26.84586	-7.05295	4.78582
26.85005	-7.05295	4.78582
26.85424	-7.05295	4.78582
26.85842	-7.05295	4.78582
26.86261	-7.05295	4.78582
26.86679	-7.05295	4.78582
26.87107	-7.05295	4.78582
26.87531	-7.05295	4.78582
26.87950	-7.05295	4.78582
26.88369	-7.05295	4.78582
26.88787	-7.05295	4.78582
26.89206	-7.05295	4.78582
26.89624	-7.05295	4.78582
26.90049	-7.05295	4.78582
26.90476	-7.05295	4.78582
26.90896	-7.05295	4.78582
26.91314	-7.05295	4.78582
26.91733	-7.05295	4.78582
26.92152	-7.05295	4.78582
26.92570	-7.05295	4.78582
26.92989	-7.05295	4.78582
26.93418	-7.05295	4.78582
26.93838	-7.05295	4.78582
26.94257	-7.05295	4.78582
26.94686	-7.05295	4.78582
26.95104	-7.05295	4.78582
26.95519	-7.05295	4.78582
26.95937	-7.05295	4.78582
26.96376	-7.05295	4.78582
26.96796	-7.05295	4.78582
26.97215	-7.05295	4.78582
26.97634	-7.05295	4.78582
26.98052	-7.05295	4.78582
26.98471	-7.05295	4.78582
26.98889	-7.05295	4.78582
26.99316	-7.05295	4.78582
26.99741	-7.05295	4.78582
27.00160	-7.05295	4.78582
27.00579	-7.07492	4.78582
27.00997	-7.07492	4.78582
27.01416	-7.07492	4.78582
27.01834	-7.07492	4.78582
27.02260	-7.07492	4.78582
27.02687	-7.07492	4.78582
27.03108	-7.07492	4.78582
27.03527	-7.09689	4.78582
27.03946	-7.07492	4.78582
27.04364	-7.07492	4.78582
27.04793	-7.07492	4.78582
27.05211	-7.07492	4.78582
27.05640	-7.07492	4.78582
27.06061	-7.07492	4.78582
27.06480	-7.07492	4.78582
27.06898	-7.07492	4.78582
27.07317	-7.07492	4.78582
27.07735	-7.09689	4.78582
27.08153	-7.09689	4.78582
27.08593	-7.09689	4.78582
27.09014	-7.09689	4.78582
27.09432	-7.09689	4.78582
27.09851	-7.09689	4.78582
27.10270	-7.09689	4.78582
27.10688	-7.09689	4.78582
27.11108	-7.09689	4.78582
27.11534	-7.09689	4.78582
27.11959	-7.09689	4.78582
27.12378	-7.09689	4.78582
27.12797	-7.09689	4.78582
27.13215	-7.09689	4.78582
27.13634	-7.11886	4.78582
27.14052	-7.11886	4.78582
27.14477	-7.11886	4.78582
27.14915	-7.11886	4.78582
27.15334	-7.11886	4.78582
27.15753	-7.11886	4.78582
27.16171	-7.11886	4.78582
27.16590	-7.11886	4.78582
27.17008	-7.11886	4.78582
27.17427	-7.11886	4.78582
27.17856	-7.11886	4.78582
27.18276	-7.11886	4.78582
27.18695	-7.14084	4.78582
27.19115	-7.14084	4.78582
27.19533	-7.14084	4.78582
27.19952	-7.14084	4.78582
27.20370	-7.14084	4.78582
27.20810	-7.14084	4.78582
27.21232	-7.14084	4.78582
27.21651	-7.14084	4.78582
27.22069	-7.14084	4.78582
27.22488	-7.14084	4.78582
27.22906	-7.14084	4.78582
27.23324	-7.14084	4.78582
27.23751	-7.16281	4.78582
27.24177	-7.16281	4.78582
27.24597	-7.16281	4.78582
27.25026	-7.16281	4.78582
27.25445	-7.16281	4.78582
27.25864	-7.16281	4.78582
27.26282	-7.16281	4.78582
27.26710	-7.16281	4.78582
27.27137	-7.16281	4.78582
27.27557	-7.16281	4.78582
27.27976	-7.16281	4.78582
27.28395	-7.16281	4.78582
27.28814	-7.16281	4.78582
27.29233	-7.18478	4.78582
27.29651	-7.16281	4.78582
27.30080	-7.16281	4.78582
27.30501	-7.16281	4.78582
27.30920	-7.16281	4.78582
27.31338	-7.16281	4.78582
27.31757	-7.18478	4.78582
27.32175	-7.18478	4.78582
27.32594	-7.18478	4.78582
27.33031	-7.18478	4.78582
27.33452	-7.18478	4.78582
27.33870	-7.18478	4.78582
27.34289	-7.18478	4.78582
27.34709	-7.18478	4.78582
27.35138	-7.18478	4.78582
27.35556	-7.18478	4.78582
27.35982	-7.18478	4.78582
27.36407	-7.18478	4.78582
27.36827	-7.20675	4.78582
27.37246	-7.18478	4.78582
27.37664	-7.20675	4.78582
27.38083	-7.20675	4.78582
27.38501	-7.20675	4.78582
27.38926	-7.20675	4.78582
27.39357	-7.20675	4.78582
27.39778	-7.20675	4.78582
27.40197	-7.20675	4.78582
27.40615	-7.22873	4.78582
27.41034	-7.22873	4.78582
27.41453	-7.22873	4.78582
27.41871	-7.22873	4.78582
27.42300	-7.22873	4.78582
27.42721	-7.22873	4.78582
27.43140	-7.22873	4.78582
27.43559	-7.22873	4.78582
27.43977	-7.22873	4.78582
27.44396	-7.22873	4.78582
27.44814	-7.22873	4.78582
27.45261	-7.25070	4.78582
27.45684	-7.25070	4.78582
27.46104	-7.25070	4.78582
27.46523	-7.25070	4.78582
27.46942	-7.25070	4.78582
27.47360	-7.25070	4.78582
27.47779	-7.25070	4.78582
27.48206	-7.25070	4.78582
27.48630	-7.27267	4.78582
27.49049	-7.27267	4.78582
27.49468	-7.27267	4.78582
27.49887	-7.27267	4.78582
27.50306	-7.27267	4.78582
27.50725	-7.27267	4.78582
27.51151	-7.27267	4.78582
27.51577	-7.27267	4.78582
27.51998	-7.29464	4.78582
27.52416	-7.29464	4.78582
27.52835	-7.29464	4.78582
27.53253	-7.29464	4.78582
27.53672	-7.29464	4.78582
27.54091	-7.29464	4.78582
27.54519	-7.29464	4.78582
27.54941	-7.31662	4.78582
27.55370	-7.31662	4.78582
27.55789	-7.31662	4.78582
27.56207	-7.31662	4.78582
27.56625	-7.31662	4.78582
27.57044	-7.31662	4.78582
27.57482	-7.31662	4.78582
27.57903	-7.33859	4.78582
27.58319	-7.33859	4.78582
27.58738	-7.33859	4.78582
27.59157	-7.33859	4.78582
27.59575	-7.33859	4.78582
27.59993	-7.33859	4.78582
27.60420	-7.36056	4.78582
27.60843	-7.36056	4.78582
27.61262	-7.36056	4.78582
27.61682	-7.36056	4.78582
27.62101	-7.36056	4.78582
27.62519	-7.36056	4.78582
27.62938	-7.36056	4.78582
27.63361	-7.38254	4.78582
27.63787	-7.38254	4.78582
27.64207	-7.38254	4.78582
27.64626	-7.38254	4.78582
27.65045	-7.38254	4.78582
27.65473	-7.38254	4.78582
27.65892	-7.40451	4.78582
27.66311	-7.40451	4.78582
27.66740	-7.40451	4.78582
27.67161	-7.40451	4.78582
27.67580	-7.40451	4.78582
27.67998	-7.40451	4.78582
27.68417	-7.40451	4.78582
27.68835	-7.40451	4.78582
27.69254	-7.42648	4.78582
27.69690	-7.42648	4.78582
27.70111	-7.42648	4.78582
27.70529	-7.42648	4.78582
27.70948	-7.42648	4.78582
27.71366	-7.42648	4.78582
27.71786	-7.44845	4.78582
27.72204	-7.44845	4.78582
27.72631	-7.44845	4.78582
27.73055	-7.44845	4.78582
27.73475	-7.44845	4.78582
27.73893	-7.44845	4.78582
27.74313	-7.44845	4.78582
27.74731	-7.47043	4.78582
27.75149	-7.47043	4.78582
27.75585	-7.47043	4.78582
27.76011	-7.47043	4.78582
27.76431	-7.47043	4.78582
27.76850	-7.47043	4.78582
27.77269	-7.47043	4.78582
27.77687	-7.49240	4.78582
27.78106	-7.49240	4.78582
27.78524	-7.49240	4.78582
27.78952	-7.49240	4.78582
27.79373	-7.49240	4.78582
27.79792	-7.49240	4.78582
27.80211	-7.49240	4.78582
27.80629	-7.49240	4.78582
27.81048	-7.49240	4.78582
27.81466	-7.51437	4.78582
27.81903	-7.51437	4.78582
27.82321	-7.51437	4.78582
27.82740	-7.51437	4.78582
27.83159	-7.51437	4.78582
27.83577	-7.53634	4.78582
27.83996	-7.51437	4.78582
27.84414	-7.53634	4.78582
27.84841	-7.53634	4.78582
27.85264	-7.53634	4.78582
27.85694	-7.53634	4.78582
27.86112	-7.55832	4.78582
27.86531	-7.55832	4.78582
27.86950	-7.55832	4.78582
27.87368	-7.55832	4.78582
27.87793	-7.55832	4.78582
27.88218	-7.58029	4.78582
27.88639	-7.58029	4.78582
27.89057	-7.55832	4.78582
27.89476	-7.58029	4.78582
27.89894	-7.58029	4.78582
27.90314	-7.58029	4.78582
27.90732	-7.58029	4.78582
27.91160	-7.58029	4.78582
27.91581	-7.60226	4.78582
27.92001	-7.60226	4.78582
27.92419	-7.60226	4.78582
27.92837	-7.60226	4.78582
27.93256	-7.60226	4.78582
27.93674	-7.60226	4.78582
27.94111	-7.60226	4.78582
27.94532	-7.60226	4.78582
27.94951	-7.62423	4.78582
27.95369	-7.62423	4.78582
27.95798	-7.62423	4.78582
27.96217	-7.62423	4.78582
27.96635	-7.62423	4.78582
27.97062	-7.62423	4.78582
27.97485	-7.64621	4.78582
27.97904	-7.64621	4.78582
27.98319	-7.64621	4.78582
27.98738	-7.64621	4.78582
27.99156	-7.64621	4.78582
27.99575	-7.64621	4.78582
27.99999	-7.64621	4.78582
28.00424	-7.64621	4.78582
28.00844	-7.66818	4.78582
28.01263	-7.66818	4.78582
28.01682	-7.66818	4.78582
28.02101	-7.66818	4.78582
28.02520	-7.66818	4.78582
28.02938	-7.66818	4.78582
28.03366	-7.66818	4.78582
28.03787	-7.66818	4.78582
28.04206	-7.66818	4.78582
28.04624	-7.69015	4.78582
28.05043	-7.69015	4.78582
28.05462	-7.69015	4.78582
28.05891	-7.69015	4.78582
28.06329	-7.69015	4.78582
28.06750	-7.69015	4.78582
28.07169	-7.69015	4.78582
28.07588	-7.71213	4.78582
28.08006	-7.71213	4.78582
28.08425	-7.71213	4.78582
28.08843	-7.71213	4.78582
28.09269	-7.71213	4.78582
28.09693	-7.73410	4.78582
28.10113	-7.73410	4.78582
28.10531	-7.73410	4.78582
28.10950	-7.73410	4.78582
28.11368	-7.73410	4.78582
28.11786	-7.73410	4.78582
28.12211	-7.73410	4.78582
28.12637	-7.73410	4.78582
28.13058	-7.75607	4.78582
28.13476	-7.75607	4.78582
28.13895	-7.75607	4.78582
28.14314	-7.75607	4.78582
28.14733	-7.75607	4.78582
28.15151	-7.75607	4.78582
28.15579	-7.75607	4.78582
28.16011	-7.75607	4.78582
28.16430	-7.77804	4.78582
28.16848	-7.77804	4.78582
28.17267	-7.77804	4.78582
28.17685	-7.77804	4.78582
28.18103	-7.77804	4.78582
28.18541	-7.77804	4.78582
28.18962	-7.77804	4.78582
28.19381	-7.77804	4.78582
28.19800	-7.80002	4.78582
28.20218	-7.80002	4.78582
28.20637	-7.80002	4.78582
28.21055	-7.80002	4.78582
28.21483	-7.80002	4.78582
28.21908	-7.80002	4.78582
28.22327	-7.80002	4.78582
28.22746	-7.80002	4.78582
28.23164	-7.82199	4.78582
28.23583	-7.82199	4.78582
28.24002	-7.82199	4.78582
28.24429	-7.82199	4.78582
28.24856	-7.82199	4.78582
28.25276	-7.82199	4.78582
28.25695	-7.82199	4.78582
28.26124	-7.82199	4.78582
28.26543	-7.84396	4.78582
28.26961	-7.82199	4.78582
28.27380	-7.82199	4.78582
28.27808	-7.84396	4.78582
28.28229	-7.84396	4.78582
28.28649	-7.84396	4.78582
28.29068	-7.84396	4.78582
28.29486	-7.84396	4.78582
28.29906	-7.84396	4.78582
28.30324	-7.84396	4.78582
28.30763	-7.86593	4.78582
28.31185	-7.86593	4.78582
28.31604	-7.86593	4.78582
28.32022	-7.86593	4.78582
28.32441	-7.86593	4.78582
28.32859	-7.86593	4.78582
28.33278	-7.86593	4.78582
28.33704	-7.86593	4.78582
28.34127	-7.86593	4.78582
28.34548	-7.86593	4.78582
28.34966	-7.86593	4.78582
28.35385	-7.86593	4.78582
28.35803	-7.88791	4.78582
28.36232	-7.86593	4.78582
28.36658	-7.86593	4.78582
28.37084	-7.88791	4.78582
28.37506	-7.88791	4.78582
28.37925	-7.88791	4.78582
28.38346	-7.88791	4.78582
28.38765	-7.88791	4.78582
28.39183	-7.88791	4.78582
28.39604	-7.88791	4.78582
28.40040	-7.88791	4.78582
28.40462	-7.88791	4.78582
28.40881	-7.88791	4.78582
28.41302	-7.88791	4.78582
28.41721	-7.88791	4.78582
28.42140	-7.90988	4.78582
28.42559	-7.90988	4.78582
28.43026	-7.90988	4.78582
28.43447	-7.90988	4.78582
28.43866	-7.90988	4.78582
28.44285	-7.90988	4.78582
28.44707	-7.90988	4.78582
28.45127	-7.90988	4.78582
28.45545	-7.90988	4.78582
28.45974	-7.90988	4.78582
28.46414	-7.90988	4.78582
28.46834	-7.90988	4.78582
28.47253	-7.90988	4.78582
28.47671	-7.90988	4.78582
28.48090	-7.90988	4.78582
28.48508	-7.90988	4.78582
28.48933	-7.90988	4.78582
28.49361	-7.90988	4.78582
28.49781	-7.90988	4.78582
28.50200	-7.90988	4.78582
28.50618	-7.93185	4.78582
28.51037	-7.90988	4.78582
28.51455	-7.90988	4.78582
28.51873	-7.90988	4.78582
28.52303	-7.90988	4.78582
28.52720	-7.90988	4.78582
28.53138	-7.90988	4.78582
28.53557	-7.90988	4.78582
28.53975	-7.90988	4.78582
28.54394	-7.90988	4.78582
28.54813	-7.90988	4.78582
28.55255	-7.90988	4.78582
28.55675	-7.93185	4.78582
28.56094	-7.90988	4.78582
28.56523	-7.90988	4.78582
28.56941	-7.90988	4.78582
28.57360	-7.93185	4.78582
28.57778	-7.90988	4.78582
28.58204	-7.93185	4.78582
28.58630	-7.93185	4.78582
28.59049	-7.90988	4.78582
28.59468	-7.90988	4.78582
28.59889	-7.93185	4.78582
28.60310	-7.90988	4.78582
28.60728	-7.90988	4.78582
28.61155	-7.90988	4.78582
28.61582	-7.90988	4.78582
28.62002	-7.90988	4.78582
28.62421	-7.93185	4.78582
28.62840	-7.90988	4.78582
28.63259	-7.90988	4.78582
28.63677	-7.93185	4.78582
28.64096	-7.90988	4.78582
28.64525	-7.90988	4.78582
28.64946	-7.90988	4.78582
28.65365	-7.90988	4.78582
28.65784	-7.90988	4.78582
28.66202	-7.90988	4.78582
28.66631	-7.90988	4.78582
28.67050	-7.90988	4.78582
28.67490	-7.90988	4.78582
28.67913	-7.90988	4.78582
28.68332	-7.90988	4.78582
28.68750	-7.90988	4.78582
28.69169	-7.90988	4.78582
28.69587	-7.90988	4.78582
28.70005	-7.90988	4.78582
28.70432	-7.90988	4.78582
28.70859	-7.90988	4.78582
28.71279	-7.88791	4.78582
28.71697	-7.90988	4.78582
28.72116	-7.90988	4.78582
28.72535	-7.90988	4.78582
28.72953	-7.88791	4.78582
28.73379	-7.90988	4.78582
28.73807	-7.88791	4.78582
28.74227	-7.88791	4.78582
28.74645	-7.88791	4.78582
28.75063	-7.88791	4.78582
28.75482	-7.88791	4.78582
28.75900	-7.88791	4.78582
28.76319	-7.88791	4.78582
28.76759	-7.88791	4.78582
28.77178	-7.88791	4.78582
28.77596	-7.88791	4.78582
28.78015	-7.88791	4.78582
28.78433	-7.86593	4.78582
28.78852	-7.86593	4.78582
28.79270	-7.86593	4.78582
28.79712	-7.86593	4.78582
28.80132	-7.86593	4.78582
28.80551	-7.86593	4.78582
28.80969	-7.86593	4.78582
28.81387	-7.86593	4.78582
28.81806	-7.86593	4.78582
28.82224	-7.86593	4.78582
28.82650	-7.86593	4.78582
28.83080	-7.86593	4.78582
28.83501	-7.86593	4.78582
28.83920	-7.84396	4.78582
28.84339	-7.84396	4.78582
28.84758	-7.84396	4.78582
28.85178	-7.84396	4.78582
28.85604	-7.84396	4.78582
28.86033	-7.84396	4.78582
28.86453	-7.84396	4.78582
28.86884	-7.84396	4.78582
28.87303	-7.84396	4.78582
28.87722	-7.84396	4.78582
28.88141	-7.84396	4.78582
28.88560	-7.82199	4.78582
28.88990	-7.84396	4.78582
28.89410	-7.84396	4.78582
28.89830	-7.82199	4.78582
28.90249	-7.82199	4.78582
28.90668	-7.82199	4.78582
28.91087	-7.82199	4.78582
28.91508	-7.82199	4.78582
28.91947	-7.82199	4.78582
28.92368	-7.82199	4.78582
28.92788	-7.82199	4.78582
28.93207	-7.82199	4.78582
28.93626	-7.82199	4.78582
28.94046	-7.80002	4.78582
28.94464	-7.82199	4.78582
28.94896	-7.80002	4.78582
28.95322	-7.80002	4.78582
28.95741	-7.80002	4.78582
28.96159	-7.80002	4.78582
28.96578	-7.80002	4.78582
28.97007	-7.80002	4.78582
28.97425	-7.80002	4.78582
28.97851	-7.80002	4.78582
28.98279	-7.80002	4.78582
28.98699	-7.80002	4.78582
28.99118	-7.80002	4.78582
28.99536	-7.80002	4.78582
28.99955	-7.80002	4.78582
29.00374	-7.80002	4.78582
29.00792	-7.80002	4.78582
29.01223	-7.77804	4.78582
29.01643	-7.77804	4.78582
29.02062	-7.80002	4.78582
29.02481	-7.80002	4.78582
29.02899	-7.80002	4.78582
29.03318	-7.77804	4.78582
29.03736	-7.77804	4.78582
29.04177	-7.77804	4.78582
29.04598	-7.77804	4.78582
29.05017	-7.77804	4.78582
29.05435	-7.77804	4.78582
29.05854	-7.77804	4.78582
29.06272	-7.77804	4.78582
29.06691	-7.77804	4.78582
29.07132	-7.77804	4.78582
29.07557	-7.77804	4.78582
29.07976	-7.75607	4.78582
29.08395	-7.77804	4.78582
29.08813	-7.75607	4.78582
29.09231	-7.75607	4.78582
29.09650	-7.77804	4.78582
29.10080	-7.75607	4.78582
29.10508	-7.75607	4.78582
29.10928	-7.75607	4.78582
29.11347	-7.75607	4.78582
29.11766	-7.75607	4.78582
29.12184	-7.75607	4.78582
29.12603	-7.75607	4.78582
29.13021	-7.75607	4.78582
29.13451	-7.75607	4.78582
29.13871	-7.75607	4.78582
29.14290	-7.75607	4.78582
29.14710	-7.75607	4.78582
29.15128	-7.75607	4.78582
29.15547	-7.75607	4.78582
29.15965	-7.75607	4.78582
29.16404	-7.75607	4.78582
29.16825	-7.73410	4.78582
29.17254	-7.75607	4.78582
29.17672	-7.75607	4.78582
29.18091	-7.73410	4.78582
29.18509	-7.75607	4.78582
29.18928	-7.73410	4.78582
29.19354	-7.75607	4.78582
29.19780	-7.75607	4.78582
29.20199	-7.75607	4.78582
29.20617	-7.73410	4.78582
29.21036	-7.75607	4.78582
29.21454	-7.73410	4.78582
29.21873	-7.73410	4.78582
29.22298	-7.73410	4.78582
29.22727	-7.73410	4.78582
29.23147	-7.73410	4.78582
29.23565	-7.73410	4.78582
29.23984	-7.73410	4.78582
29.24402	-7.73410	4.78582
29.24821	-7.73410	4.78582
29.25239	-7.73410	4.78582
29.25668	-7.73410	4.78582
29.26088	-7.73410	4.78582
29.26506	-7.73410	4.78582
29.26925	-7.73410	4.78582
29.27354	-7.73410	4.78582
29.27772	-7.73410	4.78582
29.28190	-7.73410	4.78582
29.28631	-7.73410	4.78582
29.29052	-7.73410	4.78582
29.29471	-7.73410	4.78582
29.29890	-7.73410	4.78582
29.30310	-7.73410	4.78582
29.30728	-7.73410	4.78582
29.31147	-7.73410	4.78582
29.31575	-7.73410	4.78582
29.32000	-7.71213	4.78582
29.32420	-7.73410	4.78582
29.32838	-7.73410	4.78582
29.33257	-7.73410	4.78582
29.33675	-7.73410	4.78582
29.34094	-7.73410	4.78582
29.34520	-7.71213	4.78582
29.34947	-7.71213	4.78582
29.35369	-7.73410	4.78582
29.35790	-7.73410	4.78582
29.36210	-7.73410	4.78582
29.36629	-7.71213	4.78582
29.37048	-7.71213	4.78582
29.37478	-7.71213	4.78582
29.37910	-7.71213	4.78582
29.38331	-7.71213	4.78582
29.38750	-7.71213	4.78582
29.39168	-7.71213	4.78582
29.39590	-7.71213	4.78582
29.40009	-7.71213	4.78582
29.40427	-7.71213	4.78582
29.40871	-7.71213	4.78582
29.41292	-7.71213	4.78582
29.41711	-7.71213	4.78582
29.42130	-7.71213	4.78582
29.42549	-7.71213	4.78582
29.42968	-7.71213	4.78582
29.43387	-7.71213	4.78582
29.43813	-7.71213	4.78582
29.44238	-7.71213	4.78582
29.44658	-7.71213	4.78582
29.45077	-7.71213	4.78582
29.45495	-7.71213	4.78582
29.45915	-7.71213	4.78582
29.46334	-7.69015	4.78582
29.46761	-7.71213	4.78582
29.47189	-7.71213	4.78582
29.47619	-7.69015	4.78582
29.48038	-7.69015	4.78582
29.48457	-7.71213	4.78582
29.48876	-7.71213	4.78582
29.49294	-7.71213	4.78582
29.49713	-7.69015	4.78582
29.50142	-7.69015	4.78582
29.50562	-7.69015	4.78582
29.50981	-7.69015	4.78582
29.51399	-7.69015	4.78582
29.51818	-7.69015	4.78582
29.52236	-7.69015	4.78582
29.52655	-7.69015	4.78582
29.53094	-7.69015	4.78582
29.53516	-7.69015	4.78582
29.53934	-7.69015	4.78582
29.54353	-7.69015	4.78582
29.54771	-7.69015	4.78582
29.55190	-7.69015	4.78582
29.55608	-7.69015	4.78582
29.56036	-7.69015	4.78582
29.56461	-7.69015	4.78582
29.56880	-7.66818	4.78582
29.57298	-7.66818	4.78582
29.57727	-7.66818	4.78582
29.58146	-7.66818	4.78582
29.58564	-7.66818	4.78582
29.58989	-7.66818	4.78582
29.59416	-7.66818	4.78582
29.59837	-7.66818	4.78582
29.60256	-7.66818	4.78582
29.60674	-7.66818	4.78582
29.61092	-7.66818	4.78582
29.61512	-7.66818	4.78582
29.61931	-7.66818	4.78582
29.62360	-7.66818	4.78582
29.62780	-7.64621	4.78582
29.63199	-7.64621	4.78582
29.63618	-7.64621	4.78582
29.64036	-7.64621	4.78582
29.64455	-7.64621	4.78582
29.64873	-7.64621	4.78582
29.65311	-7.64621	4.78582
29.65732	-7.64621	4.78582
29.66151	-7.64621	4.78582
29.66569	-7.64621	4.78582
29.66988	-7.64621	4.78582
29.67406	-7.64621	4.78582
29.67835	-7.62423	4.78582
29.68262	-7.62423	4.78582
29.68687	-7.62423	4.78582
29.69108	-7.62423	4.78582
29.69526	-7.62423	4.78582
29.69945	-7.62423	4.78582
29.70364	-7.62423	4.78582
29.70782	-7.62423	4.78582
29.71207	-7.62423	4.78582
29.71635	-7.60226	4.78582
29.72054	-7.60226	4.78582
29.72473	-7.60226	4.78582
29.72891	-7.60226	4.78582
29.73311	-7.60226	4.78582
29.73730	-7.60226	4.78582
29.74148	-7.60226	4.78582
29.74578	-7.60226	4.78582
29.74998	-7.60226	4.78582
29.75416	-7.58029	4.78582
29.75835	-7.60226	4.78582
29.76254	-7.58029	4.78582
29.76672	-7.58029	4.78582
29.77090	-7.58029	4.78582
29.77531	-7.58029	4.78582
29.77962	-7.55832	4.78582
29.78381	-7.55832	4.78582
29.78800	-7.58029	4.78582
29.79218	-7.55832	4.78582
29.79637	-7.55832	4.78582
29.80055	-7.55832	4.78582
29.80482	-7.55832	4.78582
29.80908	-7.55832	4.78582
29.81328	-7.58029	4.78582
29.81746	-7.55832	4.78582
29.82165	-7.55832	4.78582
29.82584	-7.55832	4.78582
29.83002	-7.53634	4.78582
29.83428	-7.53634	4.78582
29.83855	-7.53634	4.78582
29.84275	-7.53634	4.78582
29.84694	-7.53634	4.78582
29.85113	-7.53634	4.78582
29.85532	-7.53634	4.78582
29.85950	-7.53634	4.78582
29.86370	-7.51437	4.78582
29.86799	-7.53634	4.78582
29.87219	-7.51437	4.78582
29.87638	-7.51437	4.78582
29.88067	-7.51437	4.78582
29.88486	-7.51437	4.78582
29.88905	-7.51437	4.78582
29.89323	-7.51437	4.78582
29.89763	-7.51437	4.78582
29.90184	-7.49240	4.78582
29.90603	-7.51437	4.78582
29.91021	-7.49240	4.78582
29.91440	-7.49240	4.78582
29.91859	-7.49240	4.78582
29.92278	-7.49240	4.78582
29.92707	-7.49240	4.78582
29.93133	-7.51437	4.78582
29.93552	-7.49240	4.78582
29.93971	-7.49240	4.78582
29.94389	-7.49240	4.78582
29.94808	-7.49240	4.78582
29.95227	-7.49240	4.78582
29.95653	-7.49240	4.78582
29.96081	-7.49240	4.78582
29.96501	-7.47043	4.78582
29.96920	-7.49240	4.78582
29.97339	-7.47043	4.78582
29.97757	-7.47043	4.78582
29.98186	-7.47043	4.78582
29.98604	-7.47043	4.78582
29.99033	-7.49240	4.78582
29.99453	-7.47043	4.78582
29.99872	-7.47043	4.78582
