Time (s)   roll (deg)   Delta
0.00517	-0.46115	11.27051
0.00946	-0.48312	11.27051
0.01370	-0.48312	11.27051
0.01792	-0.48312	11.27051
0.02214	-0.50509	11.27051
0.02635	-0.50509	11.27051
0.03054	-0.52707	11.27051
0.03489	-0.52707	11.27051
0.03915	-0.54904	11.27051
0.04337	-0.54904	11.27051
0.04757	-0.54904	11.27051
0.05177	-0.57101	11.27051
0.05598	-0.59298	11.27051
0.06017	-0.59298	11.27051
0.06448	-0.61496	11.27051
0.06869	-0.61496	11.27051
0.07288	-0.61496	11.27051
0.07708	-0.63693	11.27051
0.08128	-0.65890	11.27051
0.08547	-0.68088	11.27051
0.08966	-0.68088	11.27051
0.09411	-0.70285	11.27051
0.09832	-0.70285	11.27051
0.10251	-0.72482	11.27051
0.10681	-0.74679	11.27051
0.11100	-0.76877	11.27051
0.11519	-0.79074	11.27051
0.11938	-0.83468	11.27051
0.12361	-0.85666	11.27051
0.12790	-0.85666	11.27051
0.13209	-0.87863	11.27051
0.13628	-0.92257	11.27051
0.14047	-0.94455	11.27051
0.14466	-0.98849	11.27051
0.14884	-0.98849	11.27051
0.15303	-1.03244	11.27051
0.15732	-1.05441	11.27051
0.16153	-1.09836	11.27051
0.16572	-1.14230	11.27051
0.16991	-1.18625	11.27051
0.17409	-1.18625	11.27051
0.17828	-1.23019	11.27051
0.18246	-1.27414	11.27051
0.18686	-1.34006	11.27051
0.19112	-1.38400	11.27051
0.19538	-1.42795	11.27051
0.19958	-1.42795	11.27051
0.20378	-1.49386	11.27051
0.20810	-1.53781	11.27051
0.21229	-1.58175	11.27051
0.21670	-1.64767	11.27051
0.22093	-1.69162	11.27051
0.22515	-1.75754	11.27051
0.22936	-1.75754	11.27051
0.23356	-1.82345	11.27051
0.23776	-1.88937	11.27051
0.24195	-1.95529	11.27051
0.24620	-2.02121	11.27051
0.25049	-2.08713	11.27051
0.25469	-2.15304	11.27051
0.25889	-2.15304	11.27051
0.26309	-2.21896	11.27051
0.26729	-2.30685	11.27051
0.27148	-2.37277	11.27051
0.27567	-2.46066	11.27051
0.27999	-2.54855	11.27051
0.28420	-2.54855	11.27051
0.28840	-2.61447	11.27051
0.29259	-2.70236	11.27051
0.29678	-2.76828	11.27051
0.30097	-2.83420	11.27051
0.30515	-2.92209	11.27051
0.30956	-2.92209	11.27051
0.31376	-3.00998	11.27051
0.31795	-3.11984	11.27051
0.32214	-3.18576	11.27051
0.32634	-3.29562	11.27051
0.33054	-3.38351	11.27051
0.33473	-3.44943	11.27051
0.33919	-3.44943	11.27051
0.34340	-3.55929	11.27051
0.34759	-3.64718	11.27051
0.35178	-3.73507	11.27051
0.35597	-3.84494	11.27051
0.36016	-3.95480	11.27051
0.36435	-3.95480	11.27051
0.36857	-4.04269	11.27051
0.37285	-4.15256	11.27051
0.37705	-4.24045	11.27051
0.38124	-4.32834	11.27051
0.38543	-4.43820	11.27051
0.38962	-4.54806	11.27051
0.39380	-4.54806	11.27051
0.39799	-4.65793	11.27051
0.40227	-4.76779	11.27051
0.40652	-4.87765	11.27051
0.41082	-4.98752	11.27051
0.41501	-4.98752	11.27051
0.41920	-5.09738	11.27051
0.42338	-5.22922	11.27051
0.42760	-5.33908	11.27051
0.43192	-5.44894	11.27051
0.43609	-5.55881	11.27051
0.44028	-5.55881	11.27051
0.44447	-5.69064	11.27051
0.44865	-5.80050	11.27051
0.45284	-5.91037	11.27051
0.45703	-6.04220	11.27051
0.46140	-6.15207	11.27051
0.46563	-6.26193	11.27051
0.46982	-6.26193	11.27051
0.47400	-6.39377	11.27051
0.47819	-6.50363	11.27051
0.48237	-6.63547	11.27051
0.48656	-6.76730	11.27051
0.49080	-6.76730	11.27051
0.49507	-6.87716	11.27051
0.49927	-7.00900	11.27051
0.50346	-7.14084	11.27051
0.50765	-7.22873	11.27051
0.51195	-7.36056	11.27051
0.51614	-7.49240	11.27051
0.52033	-7.49240	11.27051
0.52467	-7.64621	11.27051
0.52888	-7.77804	11.27051
0.53307	-7.88791	11.27051
0.53727	-8.04172	11.27051
0.54146	-8.17355	11.27051
0.54564	-8.17355	11.27051
0.54983	-8.30539	11.27051
0.55413	-8.41525	11.27051
0.55834	-8.54709	11.27051
0.56253	-8.67892	11.27051
0.56671	-8.83273	11.27051
0.57090	-8.94259	11.27051
0.57508	-8.94259	11.27051
0.57927	-9.09640	11.27051
0.58367	-9.22824	11.27051
0.58789	-9.36007	11.27051
0.59207	-9.46994	11.27051
0.59625	-9.62375	11.27051
0.60044	-9.62375	11.27051
0.60462	-9.75558	11.27051
0.60880	-9.90939	11.27051
0.61314	-10.04123	11.27051
0.61741	-10.19504	11.27051
0.62161	-10.32687	11.27051
0.62581	-10.32687	11.27051
0.63002	-10.45871	11.27051
0.63421	-10.59054	11.27051
0.63840	-10.72238	11.27051
0.64258	-10.85422	11.27051
0.64688	-10.98605	11.27051
0.65108	-11.13986	11.27051
0.65526	-11.13986	11.27051
0.65945	-11.27170	11.27051
0.66363	-11.42550	11.27051
0.66782	-11.55734	11.27051
0.67201	-11.68918	11.27051
0.67630	-11.84298	11.27051
0.68050	-11.84298	11.27051
0.68469	-11.97482	11.27051
0.68887	-12.12863	11.27051
0.69306	-12.28244	11.27051
0.69724	-12.41427	11.27051
0.70143	-12.41427	11.27051
0.70581	-12.56808	11.27051
0.71003	-12.69992	11.27051
0.71432	-12.83175	11.27051
0.71851	-12.96359	11.27051
0.72272	-13.09543	11.27051
0.72692	-13.22726	11.27051
0.73113	-13.22726	11.27051
0.73537	-13.38107	11.27051
0.73964	-13.51291	11.27051
0.74384	-13.64474	11.27051
0.74804	-13.79855	11.27051
0.75223	-13.95236	11.27051
0.75642	-13.95236	11.27051
0.76061	-14.08420	11.27051
0.76479	-14.19406	11.27051
0.76908	-14.32589	11.27051
0.77328	-14.47970	11.27051
0.77748	-14.61154	11.27051
0.78167	-14.61154	11.27051
0.78585	-14.76535	11.27051
0.79004	-14.89718	11.27051
0.79422	-15.05099	11.27051
0.79852	-15.18283	11.27051
0.80272	-15.31466	11.27051
0.80691	-15.42453	11.27051
0.81110	-15.42453	11.27051
0.81538	-15.57834	11.27051
0.81957	-15.71017	11.27051
0.82376	-15.86398	11.27051
0.82821	-15.97384	11.27051
0.83243	-16.12765	11.27051
0.83662	-16.12765	11.27051
0.84080	-16.25949	11.27051
0.84500	-16.39132	11.27051
0.84919	-16.50119	11.27051
0.85337	-16.63302	11.27051
0.85761	-16.76486	11.27051
0.86188	-16.89670	11.27051
0.86607	-16.89670	11.27051
0.87026	-17.05050	11.27051
0.87444	-17.18234	11.27051
0.87863	-17.31418	11.27051
0.88281	-17.44601	11.27051
0.88700	-17.44601	11.27051
0.89129	-17.55588	11.27051
0.89550	-17.66574	11.27051
0.89968	-17.79757	11.27051
0.90387	-17.92941	11.27051
0.90806	-18.06125	11.27051
0.91225	-18.17111	11.27051
0.91654	-18.17111	11.27051
0.92084	-18.30295	11.27051
0.92509	-18.43478	11.27051
0.92929	-18.54464	11.27051
0.93348	-18.67648	11.27051
0.93767	-18.80832	11.27051
0.94186	-18.80832	11.27051
0.94604	-18.91818	11.27051
0.95043	-19.05002	11.27051
0.95465	-19.18185	11.27051
0.95884	-19.29172	11.27051
0.96303	-19.29172	11.27051
0.96721	-19.42355	11.27051
0.97140	-19.53341	11.27051
0.97558	-19.64328	11.27051
0.97982	-19.75314	11.27051
0.98409	-19.84103	11.27051
0.98829	-19.97287	11.27051
0.99247	-19.97287	11.27051
0.99666	-20.08273	11.27051
1.00084	-20.19259	11.27051
1.00503	-20.30246	11.27051
1.00921	-20.41232	11.27051
1.01351	-20.52218	11.27051
1.01782	-20.61007	11.27051
1.02200	-20.61007	11.27051
1.02621	-20.69797	11.27051
1.03040	-20.80783	11.27051
1.03460	-20.89572	11.27051
1.03879	-20.98361	11.27051
1.04308	-21.07150	11.27051
1.04729	-21.07150	11.27051
1.05147	-21.15939	11.27051
1.05566	-21.22531	11.27051
1.05986	-21.31320	11.27051
1.06405	-21.35714	11.27051
1.06824	-21.40109	11.27051
1.07263	-21.44504	11.27051
1.07685	-21.44504	11.27051
1.08104	-21.48898	11.27051
1.08523	-21.53293	11.27051
1.08946	-21.53293	11.27051
1.09365	-21.55490	11.27051
1.09784	-21.55490	11.27051
1.10208	-21.55490	11.27051
1.10637	-21.55490	11.27051
1.11058	-21.55490	11.27051
1.11478	-21.55490	11.27051
1.11908	-21.51095	11.27051
1.12327	-21.48898	11.27051
1.12748	-21.48898	11.27051
1.13167	-21.44504	11.27051
1.13599	-21.40109	11.27051
1.14020	-21.33517	11.27051
1.14439	-21.29123	11.27051
1.14858	-21.22531	11.27051
1.15276	-21.15939	11.27051
1.15695	-21.15939	11.27051
1.16114	-21.09347	11.27051
1.16543	-21.02756	11.27051
1.16963	-20.96164	11.27051
1.17382	-20.87375	11.27051
1.17801	-20.87375	11.27051
1.18219	-20.80783	11.27051
1.18638	-20.71994	11.27051
1.19056	-20.65402	11.27051
1.19502	-20.54416	11.27051
1.19925	-20.47824	11.27051
1.20344	-20.47824	11.27051
1.20763	-20.39035	11.27051
1.21181	-20.30246	11.27051
1.21601	-20.21457	11.27051
1.22030	-20.14865	11.27051
1.22455	-20.06076	11.27051
1.22884	-20.06076	11.27051
1.23304	-19.97287	11.27051
1.23724	-19.90695	11.27051
1.24142	-19.81906	11.27051
1.24561	-19.73117	11.27051
1.24980	-19.64328	11.27051
1.25398	-19.55539	11.27051
1.25827	-19.55539	11.27051
1.26247	-19.46750	11.27051
1.26666	-19.40158	11.27051
1.27085	-19.29172	11.27051
1.27503	-19.22580	11.27051
1.27922	-19.13791	11.27051
1.28342	-19.13791	11.27051
1.28772	-19.05002	11.27051
1.29192	-18.98410	11.27051
1.29607	-18.87423	11.27051
1.30025	-18.78634	11.27051
1.30444	-18.69845	11.27051
1.30862	-18.69845	11.27051
1.31281	-18.61056	11.27051
1.31717	-18.52267	11.27051
1.32150	-18.45675	11.27051
1.32570	-18.36886	11.27051
1.32991	-18.28097	11.27051
1.33410	-18.19308	11.27051
1.33829	-18.19308	11.27051
1.34248	-18.10519	11.27051
1.34672	-18.01730	11.27051
1.35101	-17.92941	11.27051
1.35521	-17.84152	11.27051
1.35940	-17.77560	11.27051
1.36358	-17.68771	11.27051
1.36777	-17.68771	11.27051
1.37197	-17.59982	11.27051
1.37616	-17.51193	11.27051
1.38045	-17.42404	11.27051
1.38465	-17.33615	11.27051
1.38884	-17.33615	11.27051
1.39303	-17.24826	11.27051
1.39721	-17.16037	11.27051
1.40140	-17.07248	11.27051
1.40559	-17.00656	11.27051
1.40990	-16.91867	11.27051
1.41410	-16.83078	11.27051
1.41829	-16.83078	11.27051
1.42259	-16.74289	11.27051
1.42679	-16.65500	11.27051
1.43099	-16.58908	11.27051
1.43519	-16.50119	11.27051
1.43957	-16.41330	11.27051
1.44380	-16.41330	11.27051
1.44801	-16.32541	11.27051
1.45220	-16.23752	11.27051
1.45639	-16.17160	11.27051
1.46058	-16.06173	11.27051
1.46476	-16.06173	11.27051
1.46901	-15.99582	11.27051
1.47329	-15.90793	11.27051
1.47748	-15.82004	11.27051
1.48167	-15.75412	11.27051
1.48586	-15.64425	11.27051
1.49004	-15.60031	11.27051
1.49423	-15.60031	11.27051
1.49842	-15.51242	11.27051
1.50272	-15.42453	11.27051
1.50693	-15.35861	11.27051
1.51112	-15.27072	11.27051
1.51531	-15.18283	11.27051
1.51950	-15.18283	11.27051
1.52379	-15.11691	11.27051
1.52802	-15.05099	11.27051
1.53234	-14.98507	11.27051
1.53655	-14.89718	11.27051
1.54075	-14.80929	11.27051
1.54494	-14.74338	11.27051
1.54913	-14.74338	11.27051
1.55332	-14.67746	11.27051
1.55751	-14.58957	11.27051
1.56188	-14.52365	11.27051
1.56611	-14.43576	11.27051
1.57029	-14.43576	11.27051
1.57448	-14.30392	11.27051
1.57867	-14.30392	11.27051
1.58285	-14.23800	11.27051
1.58704	-14.17209	11.27051
1.59128	-14.10617	11.27051
1.59555	-14.01828	11.27051
1.59974	-14.01828	11.27051
1.60396	-13.95236	11.27051
1.60815	-13.88644	11.27051
1.61233	-13.82052	11.27051
1.61652	-13.75461	11.27051
1.62071	-13.68869	11.27051
1.62510	-13.62277	11.27051
1.62932	-13.62277	11.27051
1.63352	-13.55685	11.27051
1.63771	-13.46896	11.27051
1.64189	-13.42502	11.27051
1.64608	-13.38107	11.27051
1.65026	-13.29318	11.27051
1.65456	-13.29318	11.27051
1.65877	-13.22726	11.27051
1.66295	-13.18332	11.27051
1.66714	-13.11740	11.27051
1.67133	-13.07345	11.27051
1.67552	-12.98556	11.27051
1.67971	-12.98556	11.27051
1.68413	-12.91964	11.27051
1.68834	-12.87570	11.27051
1.69253	-12.80978	11.27051
1.69672	-12.76584	11.27051
1.70090	-12.69992	11.27051
1.70509	-12.69992	11.27051
1.70927	-12.63400	11.27051
1.71351	-12.59006	11.27051
1.71778	-12.52414	11.27051
1.72197	-12.48019	11.27051
1.72629	-12.41427	11.27051
1.73048	-12.41427	11.27051
1.73467	-12.37033	11.27051
1.73887	-12.32638	11.27051
1.74305	-12.26047	11.27051
1.74735	-12.23849	11.27051
1.75156	-12.17257	11.27051
1.75575	-12.12863	11.27051
1.75994	-12.12863	11.27051
1.76413	-12.08468	11.27051
1.76832	-12.04074	11.27051
1.77250	-11.99679	11.27051
1.77680	-11.95285	11.27051
1.78100	-11.95285	11.27051
1.78519	-11.88693	11.27051
1.78937	-11.86496	11.27051
1.79356	-11.79904	11.27051
1.79774	-11.77707	11.27051
1.80193	-11.73312	11.27051
1.80634	-11.71115	11.27051
1.81056	-11.71115	11.27051
1.81474	-11.64523	11.27051
1.81893	-11.60129	11.27051
1.82311	-11.57931	11.27051
1.82744	-11.53537	11.27051
1.83163	-11.51339	11.27051
1.83588	-11.46945	11.27051
1.84016	-11.46945	11.27051
1.84437	-11.42550	11.27051
1.84856	-11.40353	11.27051
1.85274	-11.35959	11.27051
1.85693	-11.33761	11.27051
1.86112	-11.33761	11.27051
1.86530	-11.29367	11.27051
1.86959	-11.27170	11.27051
1.87379	-11.24972	11.27051
1.87798	-11.20578	11.27051
1.88216	-11.18381	11.27051
1.88635	-11.16183	11.27051
1.89053	-11.16183	11.27051
1.89472	-11.11789	11.27051
1.89901	-11.09591	11.27051
1.90322	-11.07394	11.27051
1.90740	-11.05197	11.27051
1.91159	-11.03000	11.27051
1.91578	-11.00802	11.27051
1.91998	-11.00802	11.27051
1.92417	-10.98605	11.27051
1.92867	-10.96408	11.27051
1.93289	-10.94211	11.27051
1.93709	-10.92013	11.27051
1.94129	-10.89816	11.27051
1.94548	-10.89816	11.27051
1.94967	-10.89816	11.27051
1.95386	-10.87619	11.27051
1.95810	-10.85422	11.27051
1.96237	-10.85422	11.27051
1.96657	-10.85422	11.27051
1.97075	-10.83224	11.27051
1.97494	-10.81027	11.27051
1.97913	-10.81027	11.27051
1.98331	-10.78830	11.27051
1.98750	-10.78830	11.27051
1.99179	-10.78830	11.27051
1.99601	-10.76632	11.27051
2.00020	-10.76632	11.27051
2.00439	-10.74435	11.27051
2.00858	-10.74435	11.27051
2.01276	-10.74435	11.27051
2.01695	-10.74435	11.27051
2.02125	-10.74435	11.27051
2.02545	-10.74435	11.27051
2.02978	-10.72238	11.27051
2.03397	-10.72238	11.27051
2.03816	-10.72238	11.27051
2.04234	-10.72238	11.27051
2.04653	-10.72238	11.27051
2.05090	-10.72238	11.27051
2.05512	-10.70041	11.27051
2.05931	-10.72238	11.27051
2.06350	-10.72238	11.27051
2.06770	-10.72238	11.27051
2.07188	-10.72238	11.27051
2.07607	-10.72238	11.27051
2.08032	-10.72238	11.27051
2.08459	-10.72238	11.27051
2.08881	-10.72238	11.27051
2.09300	-10.72238	11.27051
2.09720	-10.74435	11.27051
2.10139	-10.74435	11.27051
2.10557	-10.74435	11.27051
2.10976	-10.76632	11.27051
2.11405	-10.76632	11.27051
2.11825	-10.76632	11.27051
2.12244	-10.78830	11.27051
2.12665	-10.81027	11.27051
2.13095	-10.81027	11.27051
2.13514	-10.81027	11.27051
2.13933	-10.81027	11.27051
2.14363	-10.83224	11.27051
2.14783	-10.85422	11.27051
2.15203	-10.85422	11.27051
2.15623	-10.85422	11.27051
2.16042	-10.87619	11.27051
2.16461	-10.89816	11.27051
2.16879	-10.92013	11.27051
2.17318	-10.92013	11.27051
2.17740	-10.94211	11.27051
2.18158	-10.94211	11.27051
2.18577	-10.96408	11.27051
2.18995	-10.98605	11.27051
2.19414	-11.00802	11.27051
2.19832	-11.03000	11.27051
2.20256	-11.05197	11.27051
2.20685	-11.05197	11.27051
2.21107	-11.07394	11.27051
2.21528	-11.09591	11.27051
2.21949	-11.11789	11.27051
2.22369	-11.13986	11.27051
2.22791	-11.16183	11.27051
2.23219	-11.16183	11.27051
2.23650	-11.18381	11.27051
2.24070	-11.20578	11.27051
2.24490	-11.22775	11.27051
2.24909	-11.27170	11.27051
2.25328	-11.27170	11.27051
2.25748	-11.29367	11.27051
2.26167	-11.31564	11.27051
2.26597	-11.33761	11.27051
2.27018	-11.35959	11.27051
2.27437	-11.40353	11.27051
2.27856	-11.42550	11.27051
2.28276	-11.42550	11.27051
2.28696	-11.46945	11.27051
2.29115	-11.49142	11.27051
2.29558	-11.53537	11.27051
2.29978	-11.55734	11.27051
2.30398	-11.57931	11.27051
2.30817	-11.62326	11.27051
2.31236	-11.62326	11.27051
2.31654	-11.64523	11.27051
2.32073	-11.68918	11.27051
2.32496	-11.71115	11.27051
2.32925	-11.75509	11.27051
2.33356	-11.77707	11.27051
2.33775	-11.77707	11.27051
2.34193	-11.82101	11.27051
2.34613	-11.86496	11.27051
2.35031	-11.88693	11.27051
2.35450	-11.93088	11.27051
2.35879	-11.97482	11.27051
2.36299	-11.99679	11.27051
2.36718	-11.99679	11.27051
2.37136	-12.04074	11.27051
2.37555	-12.08468	11.27051
2.37973	-12.12863	11.27051
2.38393	-12.15060	11.27051
2.38824	-12.19455	11.27051
2.39244	-12.19455	11.27051
2.39663	-12.23849	11.27051
2.40082	-12.28244	11.27051
2.40500	-12.32638	11.27051
2.40921	-12.37033	11.27051
2.41340	-12.39230	11.27051
2.41777	-12.39230	11.27051
2.42199	-12.43625	11.27051
2.42618	-12.48019	11.27051
2.43038	-12.52414	11.27051
2.43470	-12.56808	11.27051
2.43888	-12.61203	11.27051
2.44307	-12.65597	11.27051
2.44735	-12.65597	11.27051
2.45162	-12.69992	11.27051
2.45582	-12.74386	11.27051
2.46002	-12.78781	11.27051
2.46421	-12.83175	11.27051
2.46839	-12.83175	11.27051
2.47258	-12.87570	11.27051
2.47676	-12.91964	11.27051
2.48106	-12.96359	11.27051
2.48525	-13.00754	11.27051
2.48944	-13.07345	11.27051
2.49365	-13.07345	11.27051
2.49784	-13.11740	11.27051
2.50203	-13.16134	11.27051
2.50623	-13.20529	11.27051
2.51053	-13.24923	11.27051
2.51474	-13.29318	11.27051
2.51893	-13.33713	11.27051
2.52311	-13.33713	11.27051
2.52732	-13.38107	11.27051
2.53152	-13.42502	11.27051
2.53582	-13.49093	11.27051
2.54021	-13.53488	11.27051
2.54444	-13.57882	11.27051
2.54863	-13.57882	11.27051
2.55282	-13.64474	11.27051
2.55700	-13.66672	11.27051
2.56119	-13.73263	11.27051
2.56537	-13.77658	11.27051
2.56962	-13.82052	11.27051
2.57389	-13.86447	11.27051
2.57809	-13.86447	11.27051
2.58228	-13.93039	11.27051
2.58646	-13.97433	11.27051
2.59065	-14.01828	11.27051
2.59484	-14.08420	11.27051
2.59902	-14.10617	11.27051
2.60331	-14.10617	11.27051
2.60753	-14.17209	11.27051
2.61172	-14.21603	11.27051
2.61591	-14.25998	11.27051
2.62006	-14.32589	11.27051
2.62425	-14.36984	11.27051
2.62845	-14.36984	11.27051
2.63276	-14.41379	11.27051
2.63707	-14.47970	11.27051
2.64126	-14.50168	11.27051
2.64545	-14.56759	11.27051
2.64964	-14.61154	11.27051
2.65383	-14.65548	11.27051
2.65802	-14.65548	11.27051
2.66240	-14.69943	11.27051
2.66662	-14.76535	11.27051
2.67081	-14.80929	11.27051
2.67499	-14.87521	11.27051
2.67918	-14.87521	11.27051
2.68336	-14.91916	11.27051
2.68755	-14.96310	11.27051
2.69178	-15.00705	11.27051
2.69607	-15.05099	11.27051
2.70026	-15.11691	11.27051
2.70445	-15.16086	11.27051
2.70863	-15.16086	11.27051
2.71282	-15.20480	11.27051
2.71701	-15.24875	11.27051
2.72119	-15.31466	11.27051
2.72549	-15.35861	11.27051
2.72971	-15.40256	11.27051
2.73390	-15.40256	11.27051
2.73820	-15.46847	11.27051
2.74238	-15.49045	11.27051
2.74657	-15.55636	11.27051
2.75076	-15.60031	11.27051
2.75506	-15.60031	11.27051
2.75927	-15.64425	11.27051
2.76346	-15.71017	11.27051
2.76764	-15.75412	11.27051
2.77183	-15.79806	11.27051
2.77602	-15.84201	11.27051
2.78021	-15.88595	11.27051
2.78460	-15.88595	11.27051
2.78881	-15.92990	11.27051
2.79300	-15.97384	11.27051
2.79719	-16.03976	11.27051
2.80138	-16.08371	11.27051
2.80556	-16.12765	11.27051
2.80975	-16.17160	11.27051
2.81398	-16.17160	11.27051
2.81825	-16.21554	11.27051
2.82244	-16.25949	11.27051
2.82663	-16.30343	11.27051
2.83083	-16.34738	11.27051
2.83503	-16.34738	11.27051
2.83932	-16.39132	11.27051
2.84351	-16.43527	11.27051
2.84781	-16.47922	11.27051
2.85204	-16.52316	11.27051
2.85623	-16.56711	11.27051
2.86042	-16.61105	11.27051
2.86460	-16.61105	11.27051
2.86879	-16.65500	11.27051
2.87298	-16.69894	11.27051
2.87727	-16.74289	11.27051
2.88148	-16.78683	11.27051
2.88566	-16.83078	11.27051
2.88994	-16.83078	11.27051
2.89413	-16.87472	11.27051
2.89832	-16.89670	11.27051
2.90251	-16.94064	11.27051
2.90688	-16.98459	11.27051
2.91110	-17.02853	11.27051
2.91529	-17.07248	11.27051
2.91948	-17.07248	11.27051
2.92367	-17.09445	11.27051
2.92787	-17.13839	11.27051
2.93206	-17.18234	11.27051
2.93630	-17.22629	11.27051
2.94068	-17.27023	11.27051
2.94488	-17.29220	11.27051
2.94906	-17.29220	11.27051
2.95325	-17.33615	11.27051
2.95743	-17.35812	11.27051
2.96162	-17.40207	11.27051
2.96581	-17.44601	11.27051
2.97010	-17.44601	11.27051
2.97429	-17.46798	11.27051
2.97848	-17.51193	11.27051
2.98267	-17.55588	11.27051
2.98685	-17.57785	11.27051
2.99104	-17.59982	11.27051
2.99522	-17.59982	11.27051
2.99952	-17.64377	11.27051
3.00373	-17.66574	11.27051
3.00791	-17.70968	11.27051
3.01207	-17.75363	11.27051
3.01625	-17.75363	11.27051
3.02044	-17.77560	11.27051
3.02462	-17.81955	11.27051
3.02903	-17.81955	11.27051
3.03326	-17.86349	11.27051
3.03745	-17.88547	11.27051
3.04174	-17.90744	11.27051
3.04593	-17.90744	11.27051
3.05012	-17.95138	11.27051
3.05430	-17.97336	11.27051
3.05854	-17.99533	11.27051
3.06281	-18.01730	11.27051
3.06700	-18.06125	11.27051
3.07119	-18.08322	11.27051
3.07537	-18.08322	11.27051
3.07956	-18.10519	11.27051
3.08375	-18.12716	11.27051
3.08794	-18.14914	11.27051
3.09223	-18.17111	11.27051
3.09643	-18.19308	11.27051
3.10062	-18.19308	11.27051
3.10481	-18.21506	11.27051
3.10899	-18.23703	11.27051
3.11318	-18.25900	11.27051
3.11736	-18.28097	11.27051
3.12165	-18.30295	11.27051
3.12586	-18.30295	11.27051
3.13006	-18.32492	11.27051
3.13426	-18.34689	11.27051
3.13844	-18.34689	11.27051
3.14275	-18.39084	11.27051
3.14695	-18.39084	11.27051
3.15134	-18.41281	11.27051
3.15556	-18.41281	11.27051
3.15975	-18.43478	11.27051
3.16395	-18.45675	11.27051
3.16814	-18.45675	11.27051
3.17232	-18.47873	11.27051
3.17651	-18.50070	11.27051
3.18075	-18.50070	11.27051
3.18501	-18.50070	11.27051
3.18920	-18.52267	11.27051
3.19339	-18.52267	11.27051
3.19758	-18.56662	11.27051
3.20176	-18.56662	11.27051
3.20595	-18.56662	11.27051
3.21014	-18.56662	11.27051
3.21443	-18.58859	11.27051
3.21863	-18.58859	11.27051
3.22281	-18.61056	11.27051
3.22700	-18.61056	11.27051
3.23121	-18.61056	11.27051
3.23540	-18.61056	11.27051
3.23959	-18.63254	11.27051
3.24403	-18.63254	11.27051
3.24823	-18.65451	11.27051
3.25243	-18.65451	11.27051
3.25662	-18.65451	11.27051
3.26081	-18.65451	11.27051
3.26500	-18.65451	11.27051
3.26918	-18.67648	11.27051
3.27354	-18.67648	11.27051
3.27779	-18.67648	11.27051
3.28200	-18.69845	11.27051
3.28620	-18.69845	11.27051
3.29041	-18.67648	11.27051
3.29463	-18.67648	11.27051
3.29883	-18.69845	11.27051
3.30382	-18.69845	11.27051
3.30814	-18.69845	11.27051
3.31235	-18.67648	11.27051
3.31655	-18.67648	11.27051
3.32075	-18.69845	11.27051
3.32495	-18.69845	11.27051
3.32916	-18.67648	11.27051
3.33336	-18.69845	11.27051
3.33767	-18.67648	11.27051
3.34189	-18.67648	11.27051
3.34620	-18.69845	11.27051
3.35040	-18.67648	11.27051
3.35460	-18.67648	11.27051
3.35879	-18.67648	11.27051
3.36299	-18.67648	11.27051
3.36728	-18.67648	11.27051
3.37149	-18.67648	11.27051
3.37568	-18.65451	11.27051
3.37987	-18.65451	11.27051
3.38407	-18.63254	11.27051
3.38826	-18.63254	11.27051
3.39244	-18.63254	11.27051
3.39688	-18.63254	11.27051
3.40109	-18.63254	11.27051
3.40527	-18.61056	11.27051
3.40948	-18.61056	11.27051
3.41367	-18.58859	11.27051
3.41786	-18.58859	11.27051
3.42205	-18.58859	11.27051
3.42629	-18.58859	11.27051
3.43058	-18.56662	11.27051
3.43479	-18.54464	11.27051
3.43899	-18.54464	11.27051
3.44318	-18.52267	11.27051
3.44748	-18.52267	11.27051
3.45167	-18.50070	11.27051
3.45587	-18.50070	11.27051
3.46019	-18.50070	11.27051
3.46441	-18.47873	11.27051
3.46860	-18.45675	11.27051
3.47280	-18.43478	11.27051
3.47699	-18.43478	11.27051
3.48119	-18.43478	11.27051
3.48538	-18.41281	11.27051
3.48973	-18.39084	11.27051
3.49396	-18.39084	11.27051
3.49816	-18.36886	11.27051
3.50236	-18.36886	11.27051
3.50656	-18.34689	11.27051
3.51075	-18.32492	11.27051
3.51493	-18.30295	11.27051
3.51931	-18.30295	11.27051
3.52353	-18.28097	11.27051
3.52773	-18.28097	11.27051
3.53194	-18.25900	11.27051
3.53613	-18.23703	11.27051
3.54032	-18.21506	11.27051
3.54451	-18.21506	11.27051
3.54886	-18.17111	11.27051
3.55313	-18.14914	11.27051
3.55733	-18.14914	11.27051
3.56152	-18.14914	11.27051
3.56571	-18.12716	11.27051
3.56990	-18.10519	11.27051
3.57409	-18.08322	11.27051
3.57828	-18.06125	11.27051
3.58257	-18.03927	11.27051
3.58677	-18.03927	11.27051
3.59096	-18.01730	11.27051
3.59515	-17.99533	11.27051
3.59934	-17.97336	11.27051
3.60353	-17.95138	11.27051
3.60771	-17.95138	11.27051
3.61202	-17.92941	11.27051
3.61623	-17.90744	11.27051
3.62041	-17.88547	11.27051
3.62460	-17.86349	11.27051
3.62881	-17.84152	11.27051
3.63301	-17.79757	11.27051
3.63721	-17.79757	11.27051
3.64162	-17.77560	11.27051
3.64583	-17.75363	11.27051
3.65012	-17.73166	11.27051
3.65431	-17.70968	11.27051
3.65850	-17.68771	11.27051
3.66269	-17.66574	11.27051
3.66688	-17.66574	11.27051
3.67111	-17.64377	11.27051
3.67538	-17.59982	11.27051
3.67957	-17.57785	11.27051
3.68378	-17.57785	11.27051
3.68799	-17.57785	11.27051
3.69218	-17.53390	11.27051
3.69636	-17.51193	11.27051
3.70055	-17.48996	11.27051
3.70484	-17.46798	11.27051
3.70905	-17.44601	11.27051
3.71324	-17.40207	11.27051
3.71743	-17.40207	11.27051
3.72162	-17.38009	11.27051
3.72580	-17.35812	11.27051
3.73001	-17.33615	11.27051
3.73432	-17.31418	11.27051
3.73852	-17.29220	11.27051
3.74272	-17.29220	11.27051
3.74691	-17.24826	11.27051
3.75121	-17.22629	11.27051
3.75540	-17.20431	11.27051
3.75958	-17.18234	11.27051
3.76405	-17.13839	11.27051
3.76826	-17.13839	11.27051
3.77244	-17.11642	11.27051
3.77663	-17.09445	11.27051
3.78082	-17.07248	11.27051
3.78501	-17.05050	11.27051
3.78920	-17.05050	11.27051
3.79343	-17.00656	11.27051
3.79770	-16.98459	11.27051
3.80191	-16.96261	11.27051
3.80610	-16.94064	11.27051
3.81029	-16.91867	11.27051
3.81448	-16.87472	11.27051
3.81867	-16.87472	11.27051
3.82285	-16.85275	11.27051
3.82714	-16.83078	11.27051
3.83137	-16.80881	11.27051
3.83556	-16.78683	11.27051
3.83975	-16.74289	11.27051
3.84395	-16.72091	11.27051
3.84814	-16.72091	11.27051
3.85243	-16.69894	11.27051
3.85674	-16.67697	11.27051
3.86095	-16.65500	11.27051
3.86514	-16.61105	11.27051
3.86933	-16.61105	11.27051
3.87351	-16.58908	11.27051
3.87770	-16.56711	11.27051
3.88189	-16.54513	11.27051
3.88631	-16.52316	11.27051
3.89052	-16.50119	11.27051
3.89471	-16.45724	11.27051
3.89889	-16.45724	11.27051
3.90308	-16.43527	11.27051
3.90727	-16.41330	11.27051
3.91145	-16.39132	11.27051
3.91568	-16.36935	11.27051
3.91996	-16.34738	11.27051
3.92416	-16.32541	11.27051
3.92834	-16.32541	11.27051
3.93254	-16.28146	11.27051
3.93674	-16.25949	11.27051
3.94093	-16.23752	11.27051
3.94512	-16.21554	11.27051
3.94941	-16.19357	11.27051
3.95372	-16.19357	11.27051
3.95791	-16.14963	11.27051
3.96210	-16.14963	11.27051
3.96630	-16.12765	11.27051
3.97050	-16.08371	11.27051
3.97469	-16.06173	11.27051
3.97899	-16.03976	11.27051
3.98320	-16.03976	11.27051
3.98739	-16.01779	11.27051
3.99158	-15.99582	11.27051
3.99577	-15.97384	11.27051
3.99997	-15.95187	11.27051
4.00415	-15.95187	11.27051
4.00859	-15.92990	11.27051
4.01280	-15.90793	11.27051
4.01699	-15.88595	11.27051
4.02117	-15.84201	11.27051
4.02536	-15.82004	11.27051
4.02957	-15.82004	11.27051
4.03377	-15.79806	11.27051
4.03800	-15.77609	11.27051
4.04228	-15.75412	11.27051
4.04648	-15.73214	11.27051
4.05067	-15.71017	11.27051
4.05496	-15.68820	11.27051
4.05915	-15.68820	11.27051
4.06334	-15.66623	11.27051
4.06756	-15.64425	11.27051
4.07187	-15.62228	11.27051
4.07610	-15.60031	11.27051
4.08029	-15.60031	11.27051
4.08448	-15.57834	11.27051
4.08867	-15.57834	11.27051
4.09285	-15.55636	11.27051
4.09704	-15.51242	11.27051
4.10134	-15.49045	11.27051
4.10555	-15.49045	11.27051
4.10974	-15.49045	11.27051
4.11393	-15.46847	11.27051
4.11812	-15.44650	11.27051
4.12231	-15.42453	11.27051
4.12649	-15.38058	11.27051
4.13094	-15.38058	11.27051
4.13516	-15.35861	11.27051
4.13937	-15.35861	11.27051
4.14356	-15.33664	11.27051
4.14775	-15.31466	11.27051
4.15194	-15.29269	11.27051
4.15623	-15.27072	11.27051
4.16049	-15.27072	11.27051
4.16476	-15.27072	11.27051
4.16895	-15.24875	11.27051
4.17314	-15.22677	11.27051
4.17733	-15.20480	11.27051
4.18152	-15.20480	11.27051
4.18570	-15.16086	11.27051
4.18989	-15.13888	11.27051
4.19418	-15.13888	11.27051
4.19839	-15.13888	11.27051
4.20258	-15.11691	11.27051
4.20677	-15.09494	11.27051
4.21096	-15.07297	11.27051
4.21514	-15.07297	11.27051
4.21933	-15.07297	11.27051
4.22362	-15.05099	11.27051
4.22784	-15.02902	11.27051
4.23206	-15.02902	11.27051
4.23625	-15.00705	11.27051
4.24044	-14.98507	11.27051
4.24462	-14.98507	11.27051
4.24881	-14.98507	11.27051
4.25324	-14.96310	11.27051
4.25755	-14.94113	11.27051
4.26174	-14.94113	11.27051
4.26593	-14.91916	11.27051
4.27011	-14.91916	11.27051
4.27430	-14.89718	11.27051
4.27849	-14.89718	11.27051
4.28273	-14.87521	11.27051
4.28699	-14.87521	11.27051
4.29118	-14.87521	11.27051
4.29538	-14.85324	11.27051
4.29956	-14.83127	11.27051
4.30375	-14.83127	11.27051
4.30794	-14.83127	11.27051
4.31213	-14.80929	11.27051
4.31642	-14.80929	11.27051
4.32062	-14.80929	11.27051
4.32481	-14.78732	11.27051
4.32900	-14.76535	11.27051
4.33320	-14.76535	11.27051
4.33740	-14.76535	11.27051
4.34159	-14.74338	11.27051
4.34589	-14.74338	11.27051
4.35010	-14.74338	11.27051
4.35429	-14.72140	11.27051
4.35858	-14.72140	11.27051
4.36277	-14.72140	11.27051
4.36695	-14.69943	11.27051
4.37114	-14.67746	11.27051
4.37553	-14.67746	11.27051
4.37979	-14.67746	11.27051
4.38400	-14.67746	11.27051
4.38819	-14.67746	11.27051
4.39240	-14.67746	11.27051
4.39659	-14.65548	11.27051
4.40078	-14.65548	11.27051
4.40503	-14.65548	11.27051
4.40940	-14.65548	11.27051
4.41361	-14.63351	11.27051
4.41780	-14.63351	11.27051
4.42200	-14.63351	11.27051
4.42619	-14.63351	11.27051
4.43040	-14.61154	11.27051
4.43461	-14.61154	11.27051
4.43897	-14.61154	11.27051
4.44321	-14.61154	11.27051
4.44741	-14.61154	11.27051
4.45160	-14.61154	11.27051
4.45579	-14.61154	11.27051
4.46009	-14.61154	11.27051
4.46426	-14.58957	11.27051
4.46859	-14.61154	11.27051
4.47278	-14.58957	11.27051
4.47697	-14.58957	11.27051
4.48115	-14.58957	11.27051
4.48533	-14.58957	11.27051
4.48968	-14.58957	11.27051
4.49402	-14.58957	11.27051
4.49857	-14.58957	11.27051
4.50282	-14.58957	11.27051
4.50700	-14.58957	11.27051
4.51119	-14.58957	11.27051
4.51537	-14.56759	11.27051
4.51954	-14.56759	11.27051
4.52370	-14.56759	11.27051
4.52794	-14.58957	11.27051
4.53225	-14.56759	11.27051
4.53644	-14.56759	11.27051
4.54062	-14.56759	11.27051
4.54480	-14.58957	11.27051
4.54897	-14.58957	11.27051
4.55314	-14.58957	11.27051
4.55730	-14.58957	11.27051
4.56178	-14.58957	11.27051
4.56599	-14.58957	11.27051
4.57019	-14.58957	11.27051
4.57438	-14.58957	11.27051
4.57858	-14.58957	11.27051
4.58277	-14.58957	11.27051
4.58696	-14.58957	11.27051
4.59133	-14.58957	11.27051
4.59555	-14.58957	11.27051
4.59974	-14.58957	11.27051
4.60394	-14.58957	11.27051
4.60813	-14.58957	11.27051
4.61231	-14.61154	11.27051
4.61650	-14.61154	11.27051
4.62082	-14.61154	11.27051
4.62508	-14.61154	11.27051
4.62929	-14.61154	11.27051
4.63350	-14.61154	11.27051
4.63770	-14.63351	11.27051
4.64191	-14.63351	11.27051
4.64612	-14.63351	11.27051
4.65111	-14.63351	11.27051
4.65540	-14.63351	11.27051
4.65962	-14.65548	11.27051
4.66397	-14.65548	11.27051
4.66817	-14.65548	11.27051
4.67236	-14.65548	11.27051
4.67655	-14.65548	11.27051
4.68080	-14.67746	11.27051
4.68510	-14.67746	11.27051
4.68930	-14.67746	11.27051
4.69349	-14.67746	11.27051
4.69769	-14.69943	11.27051
4.70188	-14.69943	11.27051
4.70607	-14.69943	11.27051
4.71027	-14.69943	11.27051
4.71456	-14.72140	11.27051
4.71876	-14.72140	11.27051
4.72300	-14.72140	11.27051
4.72719	-14.72140	11.27051
4.73140	-14.74338	11.27051
4.73559	-14.74338	11.27051
4.73978	-14.74338	11.27051
4.74411	-14.76535	11.27051
4.74832	-14.76535	11.27051
4.75251	-14.76535	11.27051
4.75670	-14.76535	11.27051
4.76090	-14.78732	11.27051
4.76520	-14.78732	11.27051
4.76939	-14.78732	11.27051
4.77383	-14.80929	11.27051
4.77805	-14.80929	11.27051
4.78224	-14.80929	11.27051
4.78642	-14.80929	11.27051
4.79061	-14.83127	11.27051
4.79481	-14.83127	11.27051
4.79900	-14.85324	11.27051
4.80323	-14.85324	11.27051
4.80750	-14.85324	11.27051
4.81170	-14.85324	11.27051
4.81589	-14.87521	11.27051
4.82007	-14.87521	11.27051
4.82425	-14.87521	11.27051
4.82844	-14.89718	11.27051
4.83265	-14.89718	11.27051
4.83694	-14.89718	11.27051
4.84114	-14.91916	11.27051
4.84534	-14.91916	11.27051
4.84952	-14.94113	11.27051
4.85371	-14.94113	11.27051
4.85790	-14.94113	11.27051
4.86208	-14.94113	11.27051
4.86649	-14.96310	11.27051
4.87069	-14.96310	11.27051
4.87488	-14.98507	11.27051
4.87907	-14.98507	11.27051
4.88326	-14.98507	11.27051
4.88744	-14.98507	11.27051
4.89163	-15.00705	11.27051
4.89608	-15.02902	11.27051
4.90029	-15.02902	11.27051
4.90447	-15.02902	11.27051
4.90866	-15.05099	11.27051
4.91285	-15.05099	11.27051
4.91703	-15.05099	11.27051
4.92122	-15.05099	11.27051
4.92544	-15.07297	11.27051
4.92971	-15.07297	11.27051
4.93392	-15.09494	11.27051
4.93812	-15.09494	11.27051
4.94231	-15.09494	11.27051
4.94650	-15.11691	11.27051
4.95069	-15.11691	11.27051
4.95487	-15.13888	11.27051
4.95917	-15.13888	11.27051
4.96337	-15.16086	11.27051
4.96768	-15.16086	11.27051
4.97186	-15.16086	11.27051
4.97605	-15.16086	11.27051
4.98024	-15.18283	11.27051
4.98443	-15.18283	11.27051
4.98872	-15.20480	11.27051
4.99293	-15.20480	11.27051
4.99712	-15.20480	11.27051
5.00131	-15.22677	11.27051
5.00549	-15.24875	11.27051
5.00968	-15.24875	11.27051
5.01387	-15.27072	11.27051
5.01830	-15.27072	11.27051
5.02251	-15.27072	11.27051
5.02670	-15.27072	11.27051
5.03090	-15.29269	11.27051
5.03510	-15.31466	11.27051
5.03930	-15.31466	11.27051
5.04349	-15.31466	11.27051
5.04772	-15.31466	11.27051
5.05200	-15.33664	11.27051
5.05620	-15.35861	11.27051
5.06039	-15.35861	11.27051
5.06458	-15.38058	11.27051
5.06887	-15.38058	11.27051
5.07306	-15.38058	11.27051
5.07724	-15.40256	11.27051
5.08153	-15.40256	11.27051
5.08573	-15.42453	11.27051
5.08997	-15.42453	11.27051
5.09417	-15.44650	11.27051
5.09837	-15.44650	11.27051
5.10256	-15.44650	11.27051
5.10674	-15.46847	11.27051
5.11104	-15.46847	11.27051
5.11525	-15.49045	11.27051
5.11944	-15.49045	11.27051
5.12363	-15.49045	11.27051
5.12781	-15.51242	11.27051
5.13203	-15.51242	11.27051
5.13622	-15.53439	11.27051
5.14067	-15.53439	11.27051
5.14489	-15.55636	11.27051
5.14908	-15.55636	11.27051
5.15327	-15.55636	11.27051
5.15745	-15.57834	11.27051
5.16164	-15.60031	11.27051
5.16583	-15.60031	11.27051
5.17017	-15.60031	11.27051
5.17444	-15.62228	11.27051
5.17864	-15.62228	11.27051
5.18283	-15.62228	11.27051
5.18702	-15.64425	11.27051
5.19121	-15.64425	11.27051
5.19539	-15.66623	11.27051
5.19960	-15.66623	11.27051
5.20390	-15.68820	11.27051
5.20809	-15.68820	11.27051
5.21228	-15.68820	11.27051
5.21647	-15.68820	11.27051
5.22066	-15.71017	11.27051
5.22484	-15.73214	11.27051
5.22903	-15.73214	11.27051
5.23335	-15.73214	11.27051
5.23757	-15.75412	11.27051
5.24176	-15.77609	11.27051
5.24595	-15.75412	11.27051
5.25014	-15.77609	11.27051
5.25433	-15.77609	11.27051
5.25851	-15.77609	11.27051
5.26294	-15.79806	11.27051
5.26715	-15.79806	11.27051
5.27144	-15.82004	11.27051
5.27563	-15.84201	11.27051
5.27982	-15.84201	11.27051
5.28403	-15.84201	11.27051
5.28822	-15.84201	11.27051
5.29245	-15.86398	11.27051
5.29672	-15.86398	11.27051
5.30092	-15.86398	11.27051
5.30511	-15.88595	11.27051
5.30929	-15.88595	11.27051
5.31348	-15.88595	11.27051
5.31767	-15.90793	11.27051
5.32186	-15.90793	11.27051
5.32615	-15.92990	11.27051
5.33035	-15.92990	11.27051
5.33455	-15.92990	11.27051
5.33875	-15.92990	11.27051
5.34294	-15.92990	11.27051
5.34713	-15.95187	11.27051
5.35133	-15.97384	11.27051
5.35564	-15.97384	11.27051
5.35985	-15.97384	11.27051
5.36405	-15.97384	11.27051
5.36824	-15.99582	11.27051
5.37253	-15.99582	11.27051
5.37672	-15.99582	11.27051
5.38090	-15.99582	11.27051
5.38530	-16.01779	11.27051
5.38951	-16.01779	11.27051
5.39370	-16.01779	11.27051
5.39789	-16.03976	11.27051
5.40208	-16.03976	11.27051
5.40627	-16.03976	11.27051
5.41049	-16.03976	11.27051
5.41473	-16.06173	11.27051
5.41901	-16.06173	11.27051
5.42321	-16.06173	11.27051
5.42740	-16.08371	11.27051
5.43161	-16.08371	11.27051
5.43581	-16.08371	11.27051
5.44001	-16.08371	11.27051
5.44420	-16.10568	11.27051
5.44851	-16.10568	11.27051
5.45271	-16.10568	11.27051
5.45690	-16.10568	11.27051
5.46109	-16.12765	11.27051
5.46528	-16.12765	11.27051
5.46948	-16.12765	11.27051
5.47377	-16.12765	11.27051
5.47807	-16.14963	11.27051
5.48228	-16.14963	11.27051
5.48647	-16.14963	11.27051
5.49065	-16.17160	11.27051
5.49485	-16.17160	11.27051
5.49912	-16.17160	11.27051
5.50333	-16.17160	11.27051
5.50762	-16.17160	11.27051
5.51188	-16.17160	11.27051
5.51608	-16.17160	11.27051
5.52026	-16.19357	11.27051
5.52446	-16.19357	11.27051
5.52865	-16.19357	11.27051
5.53285	-16.19357	11.27051
5.53710	-16.19357	11.27051
5.54138	-16.19357	11.27051
5.54557	-16.19357	11.27051
5.54976	-16.19357	11.27051
5.55395	-16.21554	11.27051
5.55814	-16.21554	11.27051
5.56233	-16.21554	11.27051
5.56651	-16.21554	11.27051
5.57080	-16.21554	11.27051
5.57512	-16.23752	11.27051
5.57930	-16.23752	11.27051
5.58349	-16.23752	11.27051
5.58768	-16.23752	11.27051
5.59186	-16.23752	11.27051
5.59606	-16.23752	11.27051
5.60036	-16.23752	11.27051
5.60456	-16.23752	11.27051
5.60875	-16.23752	11.27051
5.61294	-16.23752	11.27051
5.61712	-16.23752	11.27051
5.62131	-16.23752	11.27051
5.62549	-16.25949	11.27051
5.62993	-16.23752	11.27051
5.63416	-16.23752	11.27051
5.63836	-16.25949	11.27051
5.64254	-16.25949	11.27051
5.64673	-16.25949	11.27051
5.65092	-16.25949	11.27051
5.65511	-16.23752	11.27051
5.65935	-16.25949	11.27051
5.66363	-16.25949	11.27051
5.66783	-16.25949	11.27051
5.67203	-16.25949	11.27051
5.67633	-16.25949	11.27051
5.68052	-16.25949	11.27051
5.68470	-16.25949	11.27051
5.68889	-16.25949	11.27051
5.69318	-16.25949	11.27051
5.69738	-16.25949	11.27051
5.70157	-16.25949	11.27051
5.70576	-16.25949	11.27051
5.70994	-16.25949	11.27051
5.71413	-16.25949	11.27051
5.71832	-16.25949	11.27051
5.72261	-16.25949	11.27051
5.72683	-16.25949	11.27051
5.73102	-16.25949	11.27051
5.73521	-16.25949	11.27051
5.73941	-16.25949	11.27051
5.74360	-16.25949	11.27051
5.74779	-16.25949	11.27051
5.75228	-16.25949	11.27051
5.75650	-16.25949	11.27051
5.76069	-16.25949	11.27051
5.76488	-16.25949	11.27051
5.76907	-16.23752	11.27051
5.77325	-16.25949	11.27051
5.77755	-16.25949	11.27051
5.78179	-16.23752	11.27051
5.78606	-16.23752	11.27051
5.79026	-16.25949	11.27051
5.79445	-16.23752	11.27051
5.79864	-16.23752	11.27051
5.80283	-16.23752	11.27051
5.80702	-16.23752	11.27051
5.81120	-16.23752	11.27051
5.81550	-16.23752	11.27051
5.81970	-16.23752	11.27051
5.82389	-16.23752	11.27051
5.82807	-16.23752	11.27051
5.83227	-16.23752	11.27051
5.83648	-16.23752	11.27051
5.84067	-16.23752	11.27051
5.84497	-16.21554	11.27051
5.84919	-16.23752	11.27051
5.85338	-16.21554	11.27051
5.85757	-16.21554	11.27051
5.86176	-16.21554	11.27051
5.86595	-16.21554	11.27051
5.87014	-16.21554	11.27051
5.87455	-16.21554	11.27051
5.87887	-16.19357	11.27051
5.88306	-16.19357	11.27051
5.88724	-16.19357	11.27051
5.89143	-16.19357	11.27051
5.89562	-16.19357	11.27051
5.89980	-16.19357	11.27051
5.90405	-16.19357	11.27051
5.90833	-16.19357	11.27051
5.91253	-16.19357	11.27051
5.91672	-16.19357	11.27051
5.92091	-16.19357	11.27051
5.92509	-16.17160	11.27051
5.92928	-16.17160	11.27051
5.93348	-16.17160	11.27051
5.93778	-16.17160	11.27051
5.94199	-16.17160	11.27051
5.94618	-16.17160	11.27051
5.95037	-16.17160	11.27051
5.95456	-16.17160	11.27051
5.95875	-16.14963	11.27051
5.96293	-16.14963	11.27051
5.96723	-16.14963	11.27051
5.97144	-16.14963	11.27051
5.97563	-16.14963	11.27051
5.97994	-16.14963	11.27051
5.98412	-16.14963	11.27051
5.98831	-16.14963	11.27051
5.99250	-16.14963	11.27051
5.99693	-16.14963	11.27051
6.00114	-16.12765	11.27051
6.00533	-16.12765	11.27051
6.00952	-16.12765	11.27051
6.01371	-16.12765	11.27051
6.01789	-16.10568	11.27051
6.02208	-16.10568	11.27051
6.02631	-16.10568	11.27051
6.03058	-16.10568	11.27051
6.03481	-16.10568	11.27051
6.03900	-16.10568	11.27051
6.04319	-16.08371	11.27051
6.04738	-16.08371	11.27051
6.05157	-16.10568	11.27051
6.05576	-16.08371	11.27051
6.06006	-16.08371	11.27051
6.06427	-16.08371	11.27051
6.06846	-16.06173	11.27051
6.07265	-16.06173	11.27051
6.07684	-16.06173	11.27051
6.08113	-16.06173	11.27051
6.08532	-16.06173	11.27051
6.08962	-16.06173	11.27051
6.09383	-16.06173	11.27051
6.09802	-16.06173	11.27051
6.10220	-16.06173	11.27051
6.10639	-16.03976	11.27051
6.11057	-16.03976	11.27051
6.11476	-16.03976	11.27051
6.11916	-16.03976	11.27051
6.12337	-16.01779	11.27051
6.12756	-16.01779	11.27051
6.13181	-16.01779	11.27051
6.13601	-16.01779	11.27051
6.14020	-16.01779	11.27051
6.14439	-16.01779	11.27051
6.14862	-15.99582	11.27051
6.15289	-15.99582	11.27051
6.15708	-16.01779	11.27051
6.16127	-15.99582	11.27051
6.16546	-15.99582	11.27051
6.16965	-15.99582	11.27051
6.17384	-15.97384	11.27051
6.17803	-15.97384	11.27051
6.18242	-15.99582	11.27051
6.18661	-15.97384	11.27051
6.19080	-15.97384	11.27051
6.19499	-15.97384	11.27051
6.19921	-15.97384	11.27051
6.20340	-15.95187	11.27051
6.20759	-15.95187	11.27051
6.21189	-15.95187	11.27051
6.21616	-15.95187	11.27051
6.22039	-15.95187	11.27051
6.22460	-15.95187	11.27051
6.22880	-15.92990	11.27051
6.23300	-15.92990	11.27051
6.23720	-15.92990	11.27051
6.24166	-15.92990	11.27051
6.24588	-15.92990	11.27051
6.25008	-15.92990	11.27051
6.25428	-15.90793	11.27051
6.25847	-15.90793	11.27051
6.26267	-15.90793	11.27051
6.26686	-15.90793	11.27051
6.27111	-15.88595	11.27051
6.27538	-15.90793	11.27051
6.27959	-15.88595	11.27051
6.28390	-15.88595	11.27051
6.28807	-15.88595	11.27051
6.29227	-15.88595	11.27051
6.29646	-15.88595	11.27051
6.30066	-15.86398	11.27051
6.30496	-15.86398	11.27051
6.30918	-15.86398	11.27051
6.31337	-15.86398	11.27051
6.31757	-15.86398	11.27051
6.32177	-15.86398	11.27051
6.32596	-15.84201	11.27051
6.33016	-15.84201	11.27051
6.33446	-15.84201	11.27051
6.33868	-15.84201	11.27051
6.34288	-15.84201	11.27051
6.34708	-15.84201	11.27051
6.35127	-15.82004	11.27051
6.35547	-15.82004	11.27051
6.35966	-15.82004	11.27051
6.36411	-15.82004	11.27051
6.36834	-15.82004	11.27051
6.37254	-15.82004	11.27051
6.37673	-15.79806	11.27051
6.38092	-15.79806	11.27051
6.38522	-15.79806	11.27051
6.38940	-15.79806	11.27051
6.39364	-15.79806	11.27051
6.39791	-15.79806	11.27051
6.40210	-15.77609	11.27051
6.40629	-15.79806	11.27051
6.41048	-15.79806	11.27051
6.41467	-15.77609	11.27051
6.41885	-15.77609	11.27051
6.42304	-15.77609	11.27051
6.42732	-15.77609	11.27051
6.43154	-15.77609	11.27051
6.43575	-15.75412	11.27051
6.43996	-15.77609	11.27051
6.44415	-15.75412	11.27051
6.44836	-15.75412	11.27051
6.45255	-15.75412	11.27051
6.45686	-15.75412	11.27051
6.46109	-15.75412	11.27051
6.46528	-15.75412	11.27051
6.46947	-15.75412	11.27051
6.47365	-15.75412	11.27051
6.47784	-15.75412	11.27051
6.48203	-15.73214	11.27051
6.48657	-15.73214	11.27051
6.49078	-15.75412	11.27051
6.49497	-15.73214	11.27051
6.49916	-15.73214	11.27051
6.50335	-15.73214	11.27051
6.50754	-15.73214	11.27051
6.51173	-15.73214	11.27051
6.51599	-15.73214	11.27051
6.52026	-15.73214	11.27051
6.52446	-15.73214	11.27051
6.52865	-15.73214	11.27051
6.53283	-15.73214	11.27051
6.53702	-15.73214	11.27051
6.54121	-15.73214	11.27051
6.54539	-15.73214	11.27051
6.54968	-15.73214	11.27051
6.55388	-15.73214	11.27051
6.55807	-15.73214	11.27051
6.56226	-15.73214	11.27051
6.56645	-15.73214	11.27051
6.57063	-15.73214	11.27051
6.57482	-15.73214	11.27051
6.57912	-15.73214	11.27051
6.58332	-15.73214	11.27051
6.58762	-15.71017	11.27051
6.59180	-15.71017	11.27051
6.59600	-15.73214	11.27051
6.60019	-15.73214	11.27051
6.60437	-15.71017	11.27051
6.60878	-15.73214	11.27051
6.61299	-15.71017	11.27051
6.61718	-15.73214	11.27051
6.62136	-15.73214	11.27051
6.62555	-15.71017	11.27051
6.62974	-15.71017	11.27051
6.63392	-15.73214	11.27051
6.63815	-15.71017	11.27051
6.64242	-15.73214	11.27051
6.64662	-15.73214	11.27051
6.65080	-15.71017	11.27051
6.65499	-15.71017	11.27051
6.65917	-15.71017	11.27051
6.66336	-15.73214	11.27051
6.66755	-15.73214	11.27051
6.67183	-15.73214	11.27051
6.67606	-15.73214	11.27051
6.68025	-15.73214	11.27051
6.68443	-15.73214	11.27051
6.68872	-15.73214	11.27051
6.69291	-15.73214	11.27051
6.69709	-15.71017	11.27051
6.70138	-15.73214	11.27051
6.70559	-15.73214	11.27051
6.70978	-15.73214	11.27051
6.71397	-15.73214	11.27051
6.71815	-15.75412	11.27051
6.72234	-15.73214	11.27051
6.72652	-15.75412	11.27051
6.73093	-15.73214	11.27051
6.73515	-15.75412	11.27051
6.73934	-15.75412	11.27051
6.74352	-15.75412	11.27051
6.74771	-15.75412	11.27051
6.75189	-15.75412	11.27051
6.75607	-15.75412	11.27051
6.76030	-15.75412	11.27051
6.76456	-15.75412	11.27051
6.76876	-15.75412	11.27051
6.77294	-15.77609	11.27051
6.77713	-15.75412	11.27051
6.78132	-15.75412	11.27051
6.78550	-15.77609	11.27051
6.78979	-15.77609	11.27051
6.79407	-15.75412	11.27051
6.79827	-15.77609	11.27051
6.80245	-15.77609	11.27051
6.80664	-15.77609	11.27051
6.81083	-15.77609	11.27051
6.81501	-15.77609	11.27051
6.81923	-15.77609	11.27051
6.82354	-15.79806	11.27051
6.82775	-15.79806	11.27051
6.83195	-15.79806	11.27051
6.83614	-15.79806	11.27051
6.84033	-15.79806	11.27051
6.84452	-15.79806	11.27051
6.84871	-15.79806	11.27051
6.85314	-15.79806	11.27051
6.85736	-15.82004	11.27051
6.86155	-15.82004	11.27051
6.86574	-15.82004	11.27051
6.86992	-15.82004	11.27051
6.87411	-15.82004	11.27051
6.87829	-15.82004	11.27051
6.88252	-15.84201	11.27051
6.88678	-15.84201	11.27051
6.89112	-15.84201	11.27051
6.89532	-15.84201	11.27051
6.89951	-15.84201	11.27051
6.90369	-15.84201	11.27051
6.90788	-15.84201	11.27051
6.91208	-15.86398	11.27051
6.91637	-15.86398	11.27051
6.92057	-15.86398	11.27051
6.92475	-15.86398	11.27051
6.92894	-15.86398	11.27051
6.93313	-15.86398	11.27051
6.93731	-15.88595	11.27051
6.94150	-15.88595	11.27051
6.94579	-15.88595	11.27051
6.95002	-15.88595	11.27051
6.95421	-15.88595	11.27051
6.95841	-15.88595	11.27051
6.96260	-15.90793	11.27051
6.96678	-15.90793	11.27051
6.97097	-15.90793	11.27051
6.97539	-15.90793	11.27051
6.97960	-15.90793	11.27051
6.98379	-15.92990	11.27051
6.98799	-15.92990	11.27051
6.99228	-15.92990	11.27051
6.99647	-15.92990	11.27051
7.00066	-15.92990	11.27051
7.00489	-15.95187	11.27051
7.00915	-15.95187	11.27051
7.01336	-15.95187	11.27051
7.01755	-15.95187	11.27051
7.02174	-15.97384	11.27051
7.02592	-15.97384	11.27051
7.03011	-15.95187	11.27051
7.03430	-15.97384	11.27051
7.03858	-15.97384	11.27051
7.04279	-15.97384	11.27051
7.04697	-15.99582	11.27051
7.05116	-15.99582	11.27051
7.05535	-15.99582	11.27051
7.05953	-15.99582	11.27051
7.06372	-16.01779	11.27051
7.06803	-16.01779	11.27051
7.07224	-16.01779	11.27051
7.07642	-16.01779	11.27051
7.08061	-16.01779	11.27051
7.08480	-16.01779	11.27051
7.08899	-16.01779	11.27051
7.09328	-16.03976	11.27051
7.09768	-16.03976	11.27051
7.10188	-16.03976	11.27051
7.10607	-16.03976	11.27051
7.11026	-16.06173	11.27051
7.11444	-16.06173	11.27051
7.11863	-16.06173	11.27051
7.12281	-16.06173	11.27051
7.12705	-16.06173	11.27051
7.13131	-16.06173	11.27051
7.13550	-16.06173	11.27051
7.13969	-16.08371	11.27051
7.14388	-16.08371	11.27051
7.14806	-16.08371	11.27051
7.15225	-16.08371	11.27051
7.15644	-16.08371	11.27051
7.16072	-16.10568	11.27051
7.16492	-16.10568	11.27051
7.16910	-16.10568	11.27051
7.17329	-16.10568	11.27051
7.17749	-16.10568	11.27051
7.18168	-16.10568	11.27051
7.18586	-16.10568	11.27051
7.19016	-16.12765	11.27051
7.19447	-16.12765	11.27051
7.19867	-16.12765	11.27051
7.20286	-16.12765	11.27051
7.20705	-16.12765	11.27051
7.21123	-16.12765	11.27051
7.21542	-16.14963	11.27051
7.21985	-16.12765	11.27051
7.22408	-16.14963	11.27051
7.22826	-16.14963	11.27051
7.23245	-16.14963	11.27051
7.23664	-16.14963	11.27051
7.24083	-16.14963	11.27051
7.24501	-16.14963	11.27051
7.24925	-16.14963	11.27051
7.25352	-16.14963	11.27051
7.25772	-16.17160	11.27051
7.26191	-16.17160	11.27051
7.26609	-16.14963	11.27051
7.27028	-16.17160	11.27051
7.27447	-16.17160	11.27051
7.27866	-16.17160	11.27051
7.28294	-16.17160	11.27051
7.28715	-16.17160	11.27051
7.29134	-16.17160	11.27051
7.29563	-16.17160	11.27051
7.29982	-16.17160	11.27051
7.30401	-16.17160	11.27051
7.30820	-16.19357	11.27051
7.31249	-16.17160	11.27051
7.31670	-16.17160	11.27051
7.32088	-16.17160	11.27051
7.32507	-16.19357	11.27051
7.32926	-16.17160	11.27051
7.33344	-16.17160	11.27051
7.33763	-16.17160	11.27051
7.34204	-16.17160	11.27051
7.34626	-16.19357	11.27051
7.35044	-16.17160	11.27051
7.35463	-16.17160	11.27051
7.35882	-16.17160	11.27051
7.36301	-16.17160	11.27051
7.36719	-16.19357	11.27051
7.37142	-16.17160	11.27051
7.37569	-16.17160	11.27051
7.37989	-16.17160	11.27051
7.38407	-16.17160	11.27051
7.38825	-16.17160	11.27051
7.39244	-16.17160	11.27051
7.39673	-16.17160	11.27051
7.40091	-16.17160	11.27051
7.40520	-16.17160	11.27051
7.40940	-16.17160	11.27051
7.41359	-16.17160	11.27051
7.41778	-16.17160	11.27051
7.42196	-16.17160	11.27051
7.42615	-16.17160	11.27051
7.43033	-16.17160	11.27051
7.43463	-16.17160	11.27051
7.43884	-16.14963	11.27051
7.44303	-16.14963	11.27051
7.44725	-16.14963	11.27051
7.45144	-16.14963	11.27051
7.45563	-16.14963	11.27051
7.45982	-16.14963	11.27051
7.46426	-16.14963	11.27051
7.46847	-16.14963	11.27051
7.47266	-16.14963	11.27051
7.47685	-16.14963	11.27051
7.48104	-16.14963	11.27051
7.48522	-16.14963	11.27051
7.48941	-16.12765	11.27051
7.49365	-16.12765	11.27051
7.49802	-16.12765	11.27051
7.50223	-16.12765	11.27051
7.50642	-16.10568	11.27051
7.51061	-16.10568	11.27051
7.51479	-16.10568	11.27051
7.51898	-16.10568	11.27051
7.52317	-16.10568	11.27051
7.52745	-16.10568	11.27051
7.53165	-16.10568	11.27051
7.53584	-16.10568	11.27051
7.54004	-16.08371	11.27051
7.54422	-16.08371	11.27051
7.54841	-16.08371	11.27051
7.55260	-16.08371	11.27051
7.55690	-16.08371	11.27051
7.56111	-16.08371	11.27051
7.56529	-16.06173	11.27051
7.56948	-16.06173	11.27051
7.57366	-16.06173	11.27051
7.57785	-16.06173	11.27051
7.58204	-16.06173	11.27051
7.58645	-16.06173	11.27051
7.59066	-16.06173	11.27051
7.59484	-16.03976	11.27051
7.59913	-16.03976	11.27051
7.60332	-16.03976	11.27051
7.60750	-16.03976	11.27051
7.61169	-16.03976	11.27051
7.61594	-16.03976	11.27051
7.62021	-16.03976	11.27051
7.62442	-16.03976	11.27051
7.62861	-16.03976	11.27051
7.63280	-16.01779	11.27051
7.63699	-16.01779	11.27051
7.64117	-16.01779	11.27051
7.64536	-16.01779	11.27051
7.64964	-16.01779	11.27051
7.65384	-16.01779	11.27051
7.65803	-16.01779	11.27051
7.66222	-15.99582	11.27051
7.66640	-15.99582	11.27051
7.67059	-15.99582	11.27051
7.67478	-15.99582	11.27051
7.67907	-15.99582	11.27051
7.68329	-15.99582	11.27051
7.68748	-15.99582	11.27051
7.69167	-15.99582	11.27051
7.69585	-15.99582	11.27051
7.70015	-15.99582	11.27051
7.70434	-15.99582	11.27051
7.70875	-15.97384	11.27051
7.71295	-15.99582	11.27051
7.71714	-15.97384	11.27051
7.72133	-15.97384	11.27051
7.72551	-15.97384	11.27051
7.72970	-15.97384	11.27051
7.73388	-15.97384	11.27051
7.73811	-15.97384	11.27051
7.74238	-15.97384	11.27051
7.74657	-15.97384	11.27051
7.75076	-15.97384	11.27051
7.75494	-15.97384	11.27051
7.75913	-15.97384	11.27051
7.76331	-15.97384	11.27051
7.76749	-15.95187	11.27051
7.77178	-15.97384	11.27051
7.77599	-15.95187	11.27051
7.78018	-15.95187	11.27051
7.78437	-15.95187	11.27051
7.78855	-15.95187	11.27051
7.79274	-15.95187	11.27051
7.79692	-15.97384	11.27051
7.80132	-15.97384	11.27051
7.80552	-15.95187	11.27051
7.80971	-15.95187	11.27051
7.81390	-15.95187	11.27051
7.81809	-15.95187	11.27051
7.82227	-15.95187	11.27051
7.82646	-15.95187	11.27051
7.83087	-15.95187	11.27051
7.83508	-15.95187	11.27051
7.83927	-15.95187	11.27051
7.84345	-15.95187	11.27051
7.84764	-15.95187	11.27051
7.85183	-15.95187	11.27051
7.85602	-15.95187	11.27051
7.86025	-15.95187	11.27051
7.86452	-15.95187	11.27051
7.86871	-15.95187	11.27051
7.87290	-15.95187	11.27051
7.87708	-15.95187	11.27051
7.88127	-15.95187	11.27051
7.88545	-15.95187	11.27051
7.88964	-15.95187	11.27051
7.89392	-15.95187	11.27051
7.89812	-15.95187	11.27051
7.90241	-15.95187	11.27051
7.90659	-15.92990	11.27051
7.91078	-15.95187	11.27051
7.91496	-15.95187	11.27051
7.91915	-15.95187	11.27051
7.92344	-15.95187	11.27051
7.92765	-15.92990	11.27051
7.93184	-15.95187	11.27051
7.93603	-15.92990	11.27051
7.94022	-15.95187	11.27051
7.94441	-15.95187	11.27051
7.94861	-15.95187	11.27051
7.95306	-15.92990	11.27051
7.95727	-15.92990	11.27051
7.96146	-15.92990	11.27051
7.96565	-15.92990	11.27051
7.96984	-15.92990	11.27051
7.97402	-15.92990	11.27051
7.97821	-15.92990	11.27051
7.98244	-15.95187	11.27051
7.98671	-15.92990	11.27051
7.99091	-15.92990	11.27051
7.99510	-15.92990	11.27051
7.99929	-15.92990	11.27051
8.00358	-15.92990	11.27051
8.00777	-15.92990	11.27051
8.01196	-15.92990	11.27051
8.01624	-15.92990	11.27051
8.02043	-15.92990	11.27051
8.02462	-15.92990	11.27051
8.02881	-15.92990	11.27051
8.03299	-15.92990	11.27051
8.03718	-15.92990	11.27051
8.04136	-15.92990	11.27051
8.04565	-15.92990	11.27051
8.04986	-15.92990	11.27051
8.05405	-15.92990	11.27051
8.05823	-15.90793	11.27051
8.06242	-15.92990	11.27051
8.06660	-15.92990	11.27051
8.07079	-15.90793	11.27051
8.07519	-15.90793	11.27051
8.07940	-15.90793	11.27051
8.08359	-15.90793	11.27051
8.08778	-15.90793	11.27051
8.09198	-15.90793	11.27051
8.09617	-15.90793	11.27051
8.10036	-15.90793	11.27051
8.10470	-15.90793	11.27051
8.10895	-15.88595	11.27051
8.11314	-15.88595	11.27051
8.11733	-15.88595	11.27051
8.12152	-15.88595	11.27051
8.12570	-15.88595	11.27051
8.12989	-15.88595	11.27051
8.13407	-15.88595	11.27051
8.13835	-15.86398	11.27051
8.14256	-15.86398	11.27051
8.14675	-15.86398	11.27051
8.15093	-15.86398	11.27051
8.15512	-15.86398	11.27051
8.15930	-15.86398	11.27051
8.16349	-15.86398	11.27051
8.16778	-15.84201	11.27051
8.17200	-15.84201	11.27051
8.17622	-15.84201	11.27051
8.18042	-15.84201	11.27051
8.18461	-15.84201	11.27051
8.18880	-15.84201	11.27051
8.19299	-15.82004	11.27051
8.19737	-15.82004	11.27051
8.20160	-15.82004	11.27051
8.20590	-15.82004	11.27051
8.21009	-15.82004	11.27051
8.21428	-15.79806	11.27051
8.21847	-15.79806	11.27051
8.22266	-15.79806	11.27051
8.22691	-15.79806	11.27051
8.23117	-15.79806	11.27051
8.23537	-15.79806	11.27051
8.23956	-15.79806	11.27051
8.24375	-15.77609	11.27051
8.24795	-15.77609	11.27051
8.25214	-15.77609	11.27051
8.25632	-15.77609	11.27051
8.26061	-15.75412	11.27051
8.26482	-15.75412	11.27051
8.26900	-15.75412	11.27051
8.27319	-15.73214	11.27051
8.27738	-15.75412	11.27051
8.28157	-15.73214	11.27051
8.28576	-15.73214	11.27051
8.29006	-15.73214	11.27051
8.29427	-15.71017	11.27051
8.29846	-15.71017	11.27051
8.30264	-15.71017	11.27051
8.30693	-15.71017	11.27051
8.31112	-15.71017	11.27051
8.31530	-15.68820	11.27051
8.31970	-15.68820	11.27051
8.32392	-15.68820	11.27051
8.32807	-15.66623	11.27051
8.33225	-15.66623	11.27051
8.33644	-15.66623	11.27051
8.34063	-15.66623	11.27051
8.34481	-15.64425	11.27051
8.34905	-15.66623	11.27051
8.35331	-15.64425	11.27051
8.35751	-15.64425	11.27051
8.36170	-15.64425	11.27051
8.36588	-15.64425	11.27051
8.37007	-15.62228	11.27051
8.37426	-15.62228	11.27051
8.37844	-15.62228	11.27051
8.38272	-15.62228	11.27051
8.38693	-15.62228	11.27051
8.39112	-15.60031	11.27051
8.39530	-15.60031	11.27051
8.39949	-15.60031	11.27051
8.40367	-15.57834	11.27051
8.40797	-15.57834	11.27051
8.41227	-15.57834	11.27051
8.41647	-15.57834	11.27051
8.42066	-15.57834	11.27051
8.42485	-15.57834	11.27051
8.42904	-15.55636	11.27051
8.43323	-15.55636	11.27051
8.43741	-15.55636	11.27051
8.44181	-15.53439	11.27051
8.44602	-15.53439	11.27051
8.45023	-15.53439	11.27051
8.45442	-15.53439	11.27051
8.45861	-15.53439	11.27051
8.46280	-15.51242	11.27051
8.46699	-15.51242	11.27051
8.47123	-15.51242	11.27051
8.47549	-15.51242	11.27051
8.47968	-15.51242	11.27051
8.48388	-15.49045	11.27051
8.48807	-15.51242	11.27051
8.49226	-15.49045	11.27051
8.49645	-15.49045	11.27051
8.50064	-15.49045	11.27051
8.50495	-15.49045	11.27051
8.50926	-15.46847	11.27051
8.51346	-15.46847	11.27051
8.51764	-15.46847	11.27051
8.52183	-15.46847	11.27051
8.52602	-15.46847	11.27051
8.53021	-15.46847	11.27051
8.53451	-15.44650	11.27051
8.53872	-15.44650	11.27051
8.54292	-15.44650	11.27051
8.54710	-15.44650	11.27051
8.55129	-15.44650	11.27051
8.55548	-15.44650	11.27051
8.55967	-15.44650	11.27051
8.56410	-15.42453	11.27051
8.56831	-15.42453	11.27051
8.57249	-15.42453	11.27051
8.57668	-15.42453	11.27051
8.58087	-15.42453	11.27051
8.58506	-15.42453	11.27051
8.58925	-15.42453	11.27051
8.59348	-15.42453	11.27051
8.59775	-15.40256	11.27051
8.60195	-15.40256	11.27051
8.60614	-15.40256	11.27051
8.61043	-15.40256	11.27051
8.61462	-15.40256	11.27051
8.61881	-15.40256	11.27051
8.62299	-15.40256	11.27051
8.62728	-15.40256	11.27051
8.63148	-15.40256	11.27051
8.63567	-15.40256	11.27051
8.63986	-15.38058	11.27051
8.64405	-15.40256	11.27051
8.64824	-15.40256	11.27051
8.65242	-15.38058	11.27051
8.65672	-15.40256	11.27051
8.66093	-15.38058	11.27051
8.66512	-15.38058	11.27051
8.66930	-15.38058	11.27051
8.67349	-15.38058	11.27051
8.67767	-15.38058	11.27051
8.68186	-15.38058	11.27051
8.68627	-15.38058	11.27051
8.69048	-15.38058	11.27051
8.69468	-15.38058	11.27051
8.69887	-15.38058	11.27051
8.70305	-15.38058	11.27051
8.70724	-15.38058	11.27051
8.71153	-15.38058	11.27051
8.71575	-15.38058	11.27051
8.72003	-15.38058	11.27051
8.72424	-15.38058	11.27051
8.72844	-15.38058	11.27051
8.73263	-15.38058	11.27051
8.73682	-15.40256	11.27051
8.74100	-15.38058	11.27051
8.74519	-15.38058	11.27051
8.74949	-15.38058	11.27051
8.75369	-15.38058	11.27051
8.75788	-15.38058	11.27051
8.76207	-15.38058	11.27051
8.76626	-15.38058	11.27051
8.77044	-15.38058	11.27051
8.77463	-15.38058	11.27051
8.77892	-15.38058	11.27051
8.78313	-15.40256	11.27051
8.78732	-15.40256	11.27051
8.79151	-15.40256	11.27051
8.79570	-15.40256	11.27051
8.79989	-15.40256	11.27051
8.80406	-15.40256	11.27051
8.80848	-15.40256	11.27051
8.81279	-15.40256	11.27051
8.81698	-15.40256	11.27051
8.82117	-15.40256	11.27051
8.82535	-15.40256	11.27051
8.82954	-15.40256	11.27051
8.83372	-15.40256	11.27051
8.83795	-15.40256	11.27051
8.84223	-15.40256	11.27051
8.84642	-15.42453	11.27051
8.85061	-15.40256	11.27051
8.85479	-15.42453	11.27051
8.85898	-15.42453	11.27051
8.86316	-15.42453	11.27051
8.86735	-15.42453	11.27051
8.87164	-15.42453	11.27051
8.87585	-15.42453	11.27051
8.88004	-15.42453	11.27051
8.88423	-15.44650	11.27051
8.88841	-15.44650	11.27051
8.89260	-15.44650	11.27051
8.89679	-15.44650	11.27051
8.90109	-15.44650	11.27051
8.90529	-15.44650	11.27051
8.90948	-15.44650	11.27051
8.91377	-15.44650	11.27051
8.91795	-15.44650	11.27051
8.92214	-15.44650	11.27051
8.92632	-15.46847	11.27051
8.93068	-15.46847	11.27051
8.93489	-15.46847	11.27051
8.93908	-15.46847	11.27051
8.94326	-15.46847	11.27051
8.94745	-15.46847	11.27051
8.95165	-15.46847	11.27051
8.95585	-15.46847	11.27051
8.96011	-15.49045	11.27051
8.96437	-15.49045	11.27051
8.96857	-15.49045	11.27051
8.97276	-15.49045	11.27051
8.97694	-15.49045	11.27051
8.98113	-15.49045	11.27051
8.98531	-15.51242	11.27051
8.98950	-15.51242	11.27051
8.99379	-15.49045	11.27051
8.99799	-15.51242	11.27051
9.00218	-15.51242	11.27051
9.00637	-15.51242	11.27051
9.01055	-15.51242	11.27051
9.01484	-15.53439	11.27051
9.01903	-15.53439	11.27051
9.02333	-15.53439	11.27051
9.02754	-15.53439	11.27051
9.03174	-15.53439	11.27051
9.03594	-15.55636	11.27051
9.04012	-15.55636	11.27051
9.04431	-15.55636	11.27051
9.04850	-15.55636	11.27051
9.05285	-15.55636	11.27051
9.05707	-15.55636	11.27051
9.06127	-15.55636	11.27051
9.06546	-15.57834	11.27051
9.06964	-15.57834	11.27051
9.07383	-15.57834	11.27051
9.07802	-15.57834	11.27051
9.08228	-15.57834	11.27051
9.08655	-15.57834	11.27051
9.09077	-15.60031	11.27051
9.09496	-15.60031	11.27051
9.09916	-15.60031	11.27051
9.10335	-15.60031	11.27051
9.10754	-15.60031	11.27051
9.11179	-15.60031	11.27051
9.11623	-15.62228	11.27051
9.12043	-15.62228	11.27051
9.12463	-15.62228	11.27051
9.12882	-15.62228	11.27051
9.13300	-15.62228	11.27051
9.13719	-15.64425	11.27051
9.14138	-15.64425	11.27051
9.14568	-15.64425	11.27051
9.14988	-15.64425	11.27051
9.15406	-15.64425	11.27051
9.15825	-15.64425	11.27051
9.16244	-15.64425	11.27051
9.16662	-15.66623	11.27051
9.17083	-15.66623	11.27051
9.17519	-15.66623	11.27051
9.17944	-15.66623	11.27051
9.18366	-15.66623	11.27051
9.18786	-15.66623	11.27051
9.19208	-15.68820	11.27051
9.19628	-15.68820	11.27051
9.20048	-15.68820	11.27051
9.20475	-15.68820	11.27051
9.20903	-15.68820	11.27051
9.21323	-15.71017	11.27051
9.21754	-15.68820	11.27051
9.22173	-15.71017	11.27051
9.22592	-15.71017	11.27051
9.23011	-15.71017	11.27051
9.23431	-15.71017	11.27051
9.23861	-15.73214	11.27051
9.24282	-15.73214	11.27051
9.24702	-15.73214	11.27051
9.25121	-15.73214	11.27051
9.25541	-15.73214	11.27051
9.25960	-15.73214	11.27051
9.26380	-15.73214	11.27051
9.26813	-15.75412	11.27051
9.27234	-15.75412	11.27051
9.27654	-15.75412	11.27051
9.28073	-15.75412	11.27051
9.28492	-15.75412	11.27051
9.28911	-15.75412	11.27051
9.29330	-15.77609	11.27051
9.29768	-15.77609	11.27051
9.30190	-15.77609	11.27051
9.30609	-15.77609	11.27051
9.31027	-15.77609	11.27051
9.31446	-15.77609	11.27051
9.31875	-15.79806	11.27051
9.32294	-15.77609	11.27051
9.32718	-15.79806	11.27051
9.33145	-15.79806	11.27051
9.33564	-15.79806	11.27051
9.33983	-15.79806	11.27051
9.34404	-15.79806	11.27051
9.34822	-15.82004	11.27051
9.35241	-15.82004	11.27051
9.35660	-15.82004	11.27051
9.36090	-15.82004	11.27051
9.36510	-15.82004	11.27051
9.36929	-15.82004	11.27051
9.37347	-15.84201	11.27051
9.37766	-15.84201	11.27051
9.38185	-15.84201	11.27051
9.38604	-15.84201	11.27051
9.39033	-15.84201	11.27051
9.39454	-15.84201	11.27051
9.39873	-15.84201	11.27051
9.40293	-15.86398	11.27051
9.40711	-15.86398	11.27051
9.41130	-15.86398	11.27051
9.41549	-15.86398	11.27051
9.42005	-15.86398	11.27051
9.42426	-15.86398	11.27051
9.42845	-15.86398	11.27051
9.43264	-15.88595	11.27051
9.43683	-15.88595	11.27051
9.44102	-15.88595	11.27051
9.44521	-15.88595	11.27051
9.44948	-15.88595	11.27051
9.45377	-15.88595	11.27051
9.45798	-15.88595	11.27051
9.46217	-15.88595	11.27051
9.46636	-15.90793	11.27051
9.47055	-15.90793	11.27051
9.47473	-15.90793	11.27051
9.47892	-15.90793	11.27051
9.48321	-15.90793	11.27051
9.48741	-15.90793	11.27051
9.49164	-15.92990	11.27051
9.49585	-15.92990	11.27051
9.50005	-15.92990	11.27051
9.50425	-15.92990	11.27051
9.50844	-15.92990	11.27051
9.51275	-15.92990	11.27051
9.51696	-15.92990	11.27051
9.52126	-15.92990	11.27051
9.52545	-15.92990	11.27051
9.52964	-15.95187	11.27051
9.53383	-15.95187	11.27051
9.53801	-15.95187	11.27051
9.54240	-15.95187	11.27051
9.54661	-15.95187	11.27051
9.55080	-15.95187	11.27051
9.55499	-15.95187	11.27051
9.55918	-15.97384	11.27051
9.56337	-15.97384	11.27051
9.56755	-15.97384	11.27051
9.57179	-15.97384	11.27051
9.57607	-15.97384	11.27051
9.58027	-15.97384	11.27051
9.58446	-15.97384	11.27051
9.58865	-15.97384	11.27051
9.59284	-15.97384	11.27051
9.59702	-15.97384	11.27051
9.60121	-15.99582	11.27051
9.60550	-15.99582	11.27051
9.60971	-15.99582	11.27051
9.61390	-15.99582	11.27051
9.61809	-15.99582	11.27051
9.62238	-15.99582	11.27051
9.62656	-15.99582	11.27051
9.63075	-15.99582	11.27051
9.63504	-15.99582	11.27051
9.63925	-15.99582	11.27051
9.64344	-15.99582	11.27051
9.64763	-15.99582	11.27051
9.65182	-15.99582	11.27051
9.65601	-15.99582	11.27051
9.66020	-15.99582	11.27051
9.66461	-15.99582	11.27051
9.66882	-15.99582	11.27051
9.67301	-15.99582	11.27051
9.67720	-15.99582	11.27051
9.68139	-15.99582	11.27051
9.68557	-16.01779	11.27051
9.68976	-15.99582	11.27051
9.69399	-15.99582	11.27051
9.69825	-15.99582	11.27051
9.70245	-15.99582	11.27051
9.70664	-15.99582	11.27051
9.71083	-15.99582	11.27051
9.71501	-15.99582	11.27051
9.71920	-15.99582	11.27051
9.72349	-15.99582	11.27051
9.72778	-16.01779	11.27051
9.73199	-16.01779	11.27051
9.73618	-15.99582	11.27051
9.74036	-15.99582	11.27051
9.74455	-15.99582	11.27051
9.74874	-15.99582	11.27051
9.75292	-15.99582	11.27051
9.75722	-15.99582	11.27051
9.76142	-15.99582	11.27051
9.76561	-15.99582	11.27051
9.76980	-15.99582	11.27051
9.77399	-15.99582	11.27051
9.77817	-15.99582	11.27051
9.78236	-15.99582	11.27051
9.78677	-15.99582	11.27051
9.79098	-15.99582	11.27051
9.79517	-15.99582	11.27051
9.79936	-15.99582	11.27051
9.80355	-15.99582	11.27051
9.80774	-15.97384	11.27051
9.81193	-15.97384	11.27051
9.81617	-15.99582	11.27051
9.82043	-15.97384	11.27051
9.82473	-15.97384	11.27051
9.82892	-15.97384	11.27051
9.83311	-15.97384	11.27051
9.83729	-15.97384	11.27051
9.84148	-15.97384	11.27051
9.84566	-15.97384	11.27051
9.84995	-15.97384	11.27051
9.85415	-15.97384	11.27051
9.85834	-15.97384	11.27051
9.86253	-15.97384	11.27051
9.86671	-15.97384	11.27051
9.87090	-15.97384	11.27051
9.87508	-15.97384	11.27051
9.87937	-15.95187	11.27051
9.88358	-15.95187	11.27051
9.88777	-15.95187	11.27051
9.89197	-15.95187	11.27051
9.89616	-15.95187	11.27051
9.90035	-15.95187	11.27051
9.90453	-15.95187	11.27051
9.90894	-15.92990	11.27051
9.91315	-15.92990	11.27051
9.91734	-15.92990	11.27051
9.92152	-15.95187	11.27051
9.92582	-15.92990	11.27051
9.93000	-15.92990	11.27051
9.93419	-15.92990	11.27051
9.93842	-15.92990	11.27051
9.94269	-15.92990	11.27051
9.94688	-15.92990	11.27051
9.95109	-15.90793	11.27051
9.95529	-15.90793	11.27051
9.95948	-15.90793	11.27051
9.96367	-15.90793	11.27051
9.96786	-15.90793	11.27051
9.97216	-15.90793	11.27051
9.97637	-15.90793	11.27051
9.98056	-15.90793	11.27051
9.98474	-15.90793	11.27051
9.98893	-15.90793	11.27051
9.99312	-15.90793	11.27051
9.99731	-15.88595	11.27051
10.00160	-15.88595	11.27051
10.00582	-15.88595	11.27051
10.01001	-15.88595	11.27051
10.01419	-15.88595	11.27051
10.01838	-15.88595	11.27051
10.02257	-15.86398	11.27051
10.02686	-15.86398	11.27051
10.03123	-15.86398	11.27051
10.03545	-15.86398	11.27051
10.03964	-15.86398	11.27051
10.04383	-15.84201	11.27051
10.04803	-15.84201	11.27051
10.05222	-15.86398	11.27051
10.05642	-15.84201	11.27051
10.06068	-15.84201	11.27051
10.06495	-15.84201	11.27051
10.06914	-15.84201	11.27051
10.07333	-15.84201	11.27051
10.07752	-15.84201	11.27051
10.08172	-15.82004	11.27051
10.08591	-15.84201	11.27051
10.09009	-15.82004	11.27051
10.09438	-15.82004	11.27051
10.09858	-15.82004	11.27051
10.10277	-15.82004	11.27051
10.10696	-15.82004	11.27051
10.11115	-15.82004	11.27051
10.11534	-15.82004	11.27051
10.11952	-15.82004	11.27051
10.12382	-15.82004	11.27051
10.12814	-15.82004	11.27051
10.13235	-15.79806	11.27051
10.13653	-15.79806	11.27051
10.14072	-15.79806	11.27051
10.14491	-15.79806	11.27051
10.14910	-15.79806	11.27051
10.15347	-15.79806	11.27051
10.15768	-15.79806	11.27051
10.16187	-15.79806	11.27051
10.16606	-15.79806	11.27051
10.17025	-15.79806	11.27051
10.17443	-15.79806	11.27051
10.17862	-15.79806	11.27051
10.18284	-15.79806	11.27051
10.18710	-15.77609	11.27051
10.19130	-15.79806	11.27051
10.19558	-15.79806	11.27051
10.19980	-15.77609	11.27051
10.20403	-15.77609	11.27051
10.20822	-15.77609	11.27051
10.21241	-15.77609	11.27051
10.21672	-15.77609	11.27051
10.22093	-15.77609	11.27051
10.22512	-15.77609	11.27051
10.22942	-15.77609	11.27051
10.23361	-15.79806	11.27051
10.23780	-15.77609	11.27051
10.24199	-15.77609	11.27051
10.24629	-15.77609	11.27051
10.25049	-15.77609	11.27051
10.25468	-15.77609	11.27051
10.25887	-15.77609	11.27051
10.26306	-15.77609	11.27051
10.26725	-15.79806	11.27051
10.27143	-15.77609	11.27051
10.27585	-15.77609	11.27051
10.28006	-15.77609	11.27051
10.28425	-15.77609	11.27051
10.28844	-15.77609	11.27051
10.29263	-15.79806	11.27051
10.29681	-15.77609	11.27051
10.30100	-15.77609	11.27051
10.30523	-15.77609	11.27051
10.30950	-15.77609	11.27051
10.31370	-15.79806	11.27051
10.31789	-15.79806	11.27051
10.32207	-15.79806	11.27051
10.32626	-15.79806	11.27051
10.33055	-15.79806	11.27051
10.33474	-15.79806	11.27051
10.33903	-15.79806	11.27051
10.34323	-15.79806	11.27051
10.34742	-15.79806	11.27051
10.35161	-15.79806	11.27051
10.35579	-15.79806	11.27051
10.35999	-15.79806	11.27051
10.36417	-15.82004	11.27051
10.36847	-15.82004	11.27051
10.37267	-15.82004	11.27051
10.37686	-15.82004	11.27051
10.38105	-15.82004	11.27051
10.38524	-15.82004	11.27051
10.38942	-15.82004	11.27051
10.39361	-15.82004	11.27051
10.39801	-15.82004	11.27051
10.40222	-15.84201	11.27051
10.40641	-15.84201	11.27051
10.41061	-15.84201	11.27051
10.41479	-15.84201	11.27051
10.41898	-15.84201	11.27051
10.42317	-15.84201	11.27051
10.42740	-15.84201	11.27051
10.43178	-15.86398	11.27051
10.43601	-15.86398	11.27051
10.44023	-15.86398	11.27051
10.44443	-15.86398	11.27051
10.44863	-15.86398	11.27051
10.45284	-15.86398	11.27051
10.45704	-15.86398	11.27051
10.46134	-15.88595	11.27051
10.46555	-15.88595	11.27051
10.46974	-15.88595	11.27051
10.47394	-15.88595	11.27051
10.47813	-15.90793	11.27051
10.48233	-15.90793	11.27051
10.48652	-15.90793	11.27051
10.49083	-15.90793	11.27051
10.49504	-15.90793	11.27051
10.49924	-15.90793	11.27051
10.50344	-15.92990	11.27051
10.50765	-15.90793	11.27051
10.51187	-15.92990	11.27051
10.51607	-15.95187	11.27051
10.52053	-15.92990	11.27051
10.52475	-15.92990	11.27051
10.52895	-15.92990	11.27051
10.53326	-15.95187	11.27051
10.53746	-15.95187	11.27051
10.54166	-15.95187	11.27051
10.54586	-15.95187	11.27051
10.55013	-15.95187	11.27051
10.55441	-15.95187	11.27051
10.55862	-15.97384	11.27051
10.56282	-15.97384	11.27051
10.56701	-15.97384	11.27051
10.57120	-15.99582	11.27051
10.57539	-15.97384	11.27051
10.57959	-15.97384	11.27051
10.58389	-15.99582	11.27051
10.58808	-15.99582	11.27051
10.59228	-15.99582	11.27051
10.59647	-15.99582	11.27051
10.60067	-15.99582	11.27051
10.60486	-15.99582	11.27051
10.60905	-16.01779	11.27051
10.61335	-16.01779	11.27051
10.61755	-16.01779	11.27051
10.62174	-16.01779	11.27051
10.62593	-16.01779	11.27051
10.63012	-16.01779	11.27051
10.63441	-16.01779	11.27051
10.63860	-16.01779	11.27051
10.64301	-16.03976	11.27051
10.64722	-16.03976	11.27051
10.65140	-16.03976	11.27051
10.65559	-16.03976	11.27051
10.65977	-16.03976	11.27051
10.66397	-16.03976	11.27051
10.66816	-16.06173	11.27051
10.67240	-16.06173	11.27051
10.67666	-16.06173	11.27051
10.68086	-16.06173	11.27051
10.68505	-16.06173	11.27051
10.68923	-16.06173	11.27051
10.69342	-16.06173	11.27051
10.69761	-16.08371	11.27051
10.70180	-16.08371	11.27051
10.70609	-16.08371	11.27051
10.71029	-16.08371	11.27051
10.71449	-16.08371	11.27051
10.71868	-16.08371	11.27051
10.72286	-16.10568	11.27051
10.72705	-16.08371	11.27051
10.73124	-16.08371	11.27051
10.73564	-16.10568	11.27051
10.73984	-16.10568	11.27051
10.74404	-16.08371	11.27051
10.74823	-16.10568	11.27051
10.75242	-16.10568	11.27051
10.75660	-16.10568	11.27051
10.76079	-16.10568	11.27051
10.76519	-16.10568	11.27051
10.76940	-16.10568	11.27051
10.77359	-16.10568	11.27051
10.77777	-16.10568	11.27051
10.78196	-16.10568	11.27051
10.78615	-16.10568	11.27051
10.79033	-16.10568	11.27051
10.79457	-16.10568	11.27051
10.79883	-16.12765	11.27051
10.80302	-16.10568	11.27051
10.80721	-16.10568	11.27051
10.81140	-16.10568	11.27051
10.81559	-16.10568	11.27051
10.81978	-16.10568	11.27051
10.82398	-16.10568	11.27051
10.82827	-16.10568	11.27051
10.83247	-16.10568	11.27051
10.83676	-16.10568	11.27051
10.84095	-16.10568	11.27051
10.84514	-16.10568	11.27051
10.84933	-16.10568	11.27051
10.85351	-16.10568	11.27051
10.85780	-16.10568	11.27051
10.86200	-16.10568	11.27051
10.86619	-16.10568	11.27051
10.87038	-16.10568	11.27051
10.87456	-16.08371	11.27051
10.87875	-16.08371	11.27051
10.88294	-16.10568	11.27051
10.88734	-16.08371	11.27051
10.89160	-16.08371	11.27051
10.89580	-16.08371	11.27051
10.90000	-16.08371	11.27051
10.90419	-16.08371	11.27051
10.90837	-16.08371	11.27051
10.91256	-16.08371	11.27051
10.91680	-16.08371	11.27051
10.92106	-16.06173	11.27051
10.92526	-16.06173	11.27051
10.92945	-16.06173	11.27051
10.93364	-16.06173	11.27051
10.93793	-16.06173	11.27051
10.94211	-16.06173	11.27051
10.94630	-16.06173	11.27051
10.95064	-16.06173	11.27051
10.95486	-16.03976	11.27051
10.95905	-16.03976	11.27051
10.96324	-16.03976	11.27051
10.96743	-16.03976	11.27051
10.97161	-16.03976	11.27051
10.97580	-16.03976	11.27051
10.98010	-16.01779	11.27051
10.98430	-16.01779	11.27051
10.98849	-16.01779	11.27051
10.99268	-16.01779	11.27051
10.99686	-16.01779	11.27051
11.00105	-15.99582	11.27051
11.00523	-15.99582	11.27051
11.00963	-15.99582	11.27051
11.01383	-15.99582	11.27051
11.01802	-15.97384	11.27051
11.02221	-15.97384	11.27051
11.02640	-15.97384	11.27051
11.03058	-15.97384	11.27051
11.03477	-15.97384	11.27051
11.03911	-15.95187	11.27051
11.04338	-15.95187	11.27051
11.04758	-15.95187	11.27051
11.05176	-15.95187	11.27051
11.05596	-15.95187	11.27051
11.06015	-15.92990	11.27051
11.06434	-15.92990	11.27051
11.06853	-15.92990	11.27051
11.07281	-15.90793	11.27051
11.07701	-15.90793	11.27051
11.08122	-15.90793	11.27051
11.08554	-15.88595	11.27051
11.08974	-15.88595	11.27051
11.09393	-15.88595	11.27051
11.09812	-15.88595	11.27051
11.10243	-15.86398	11.27051
11.10665	-15.86398	11.27051
11.11084	-15.86398	11.27051
11.11503	-15.86398	11.27051
11.11923	-15.84201	11.27051
11.12341	-15.84201	11.27051
11.12760	-15.84201	11.27051
11.13201	-15.82004	11.27051
11.13622	-15.82004	11.27051
11.14052	-15.82004	11.27051
11.14471	-15.79806	11.27051
11.14890	-15.79806	11.27051
11.15309	-15.79806	11.27051
11.15727	-15.79806	11.27051
11.16152	-15.77609	11.27051
11.16578	-15.77609	11.27051
11.16998	-15.75412	11.27051
11.17417	-15.75412	11.27051
11.17836	-15.75412	11.27051
11.18254	-15.75412	11.27051
11.18673	-15.73214	11.27051
11.19091	-15.73214	11.27051
11.19520	-15.73214	11.27051
11.19940	-15.71017	11.27051
11.20362	-15.71017	11.27051
11.20782	-15.71017	11.27051
11.21204	-15.71017	11.27051
11.21623	-15.68820	11.27051
11.22043	-15.68820	11.27051
11.22473	-15.66623	11.27051
11.22894	-15.64425	11.27051
11.23313	-15.64425	11.27051
11.23732	-15.64425	11.27051
11.24162	-15.64425	11.27051
11.24581	-15.64425	11.27051
11.24999	-15.62228	11.27051
11.25436	-15.62228	11.27051
11.25858	-15.62228	11.27051
11.26277	-15.62228	11.27051
11.26696	-15.60031	11.27051
11.27114	-15.60031	11.27051
11.27533	-15.60031	11.27051
11.27952	-15.57834	11.27051
11.28376	-15.55636	11.27051
11.28803	-15.55636	11.27051
11.29224	-15.55636	11.27051
11.29642	-15.55636	11.27051
11.30061	-15.53439	11.27051
11.30480	-15.53439	11.27051
11.30898	-15.53439	11.27051
11.31317	-15.53439	11.27051
11.31746	-15.51242	11.27051
11.32167	-15.51242	11.27051
11.32586	-15.49045	11.27051
11.33005	-15.49045	11.27051
11.33424	-15.46847	11.27051
11.33842	-15.46847	11.27051
11.34272	-15.46847	11.27051
11.34701	-15.46847	11.27051
11.35121	-15.44650	11.27051
11.35540	-15.44650	11.27051
11.35959	-15.44650	11.27051
11.36378	-15.42453	11.27051
11.36797	-15.42453	11.27051
11.37218	-15.42453	11.27051
11.37660	-15.42453	11.27051
11.38084	-15.40256	11.27051
11.38504	-15.40256	11.27051
11.38923	-15.40256	11.27051
11.39341	-15.38058	11.27051
11.39760	-15.38058	11.27051
11.40178	-15.38058	11.27051
11.40603	-15.38058	11.27051
11.41030	-15.35861	11.27051
11.41449	-15.35861	11.27051
11.41868	-15.35861	11.27051
11.42287	-15.35861	11.27051
11.42705	-15.33664	11.27051
11.43124	-15.33664	11.27051
11.43543	-15.33664	11.27051
11.43972	-15.31466	11.27051
11.44405	-15.31466	11.27051
11.44823	-15.31466	11.27051
11.45244	-15.31466	11.27051
11.45664	-15.31466	11.27051
11.46082	-15.29269	11.27051
11.46501	-15.29269	11.27051
11.46931	-15.29269	11.27051
11.47352	-15.29269	11.27051
11.47771	-15.27072	11.27051
11.48190	-15.27072	11.27051
11.48608	-15.27072	11.27051
11.49027	-15.27072	11.27051
11.49446	-15.27072	11.27051
11.49878	-15.24875	11.27051
11.50303	-15.24875	11.27051
11.50726	-15.22677	11.27051
11.51148	-15.22677	11.27051
11.51569	-15.22677	11.27051
11.51990	-15.22677	11.27051
11.52408	-15.22677	11.27051
11.52834	-15.22677	11.27051
11.53262	-15.22677	11.27051
11.53682	-15.20480	11.27051
11.54101	-15.20480	11.27051
11.54532	-15.18283	11.27051
11.54951	-15.18283	11.27051
11.55370	-15.20480	11.27051
11.55789	-15.18283	11.27051
11.56220	-15.18283	11.27051
11.56640	-15.18283	11.27051
11.57059	-15.16086	11.27051
11.57478	-15.16086	11.27051
11.57897	-15.16086	11.27051
11.58316	-15.16086	11.27051
11.58735	-15.16086	11.27051
11.59166	-15.13888	11.27051
11.59587	-15.13888	11.27051
11.60007	-15.13888	11.27051
11.60425	-15.13888	11.27051
11.60844	-15.13888	11.27051
11.61262	-15.13888	11.27051
11.61681	-15.13888	11.27051
11.62115	-15.13888	11.27051
11.62539	-15.11691	11.27051
11.62960	-15.11691	11.27051
11.63382	-15.11691	11.27051
11.63803	-15.11691	11.27051
11.64225	-15.11691	11.27051
11.64660	-15.11691	11.27051
11.65146	-15.11691	11.27051
11.65576	-15.11691	11.27051
11.65999	-15.11691	11.27051
11.66420	-15.11691	11.27051
11.66841	-15.09494	11.27051
11.67263	-15.09494	11.27051
11.67685	-15.09494	11.27051
11.68183	-15.09494	11.27051
11.68613	-15.09494	11.27051
11.69035	-15.09494	11.27051
11.69456	-15.09494	11.27051
11.69878	-15.09494	11.27051
11.70300	-15.09494	11.27051
11.70721	-15.09494	11.27051
11.71221	-15.09494	11.27051
11.71651	-15.07297	11.27051
11.72073	-15.07297	11.27051
11.72493	-15.07297	11.27051
11.72914	-15.07297	11.27051
11.73334	-15.07297	11.27051
11.73755	-15.07297	11.27051
11.74254	-15.07297	11.27051
11.74683	-15.07297	11.27051
11.75120	-15.07297	11.27051
11.75543	-15.07297	11.27051
11.75966	-15.07297	11.27051
11.76389	-15.07297	11.27051
11.76811	-15.07297	11.27051
11.77297	-15.07297	11.27051
11.77727	-15.07297	11.27051
11.78148	-15.07297	11.27051
11.78570	-15.07297	11.27051
11.78991	-15.07297	11.27051
11.79413	-15.05099	11.27051
11.79834	-15.07297	11.27051
11.80330	-15.07297	11.27051
11.80760	-15.07297	11.27051
11.81181	-15.07297	11.27051
11.81603	-15.05099	11.27051
11.82023	-15.07297	11.27051
11.82444	-15.07297	11.27051
11.82865	-15.05099	11.27051
11.83361	-15.07297	11.27051
11.83791	-15.07297	11.27051
11.84213	-15.07297	11.27051
11.84633	-15.07297	11.27051
11.85055	-15.07297	11.27051
11.85491	-15.07297	11.27051
11.85914	-15.07297	11.27051
11.86398	-15.07297	11.27051
11.86828	-15.07297	11.27051
11.87250	-15.07297	11.27051
11.87672	-15.07297	11.27051
11.88092	-15.07297	11.27051
11.88513	-15.07297	11.27051
11.88933	-15.07297	11.27051
11.89431	-15.07297	11.27051
11.89860	-15.07297	11.27051
11.90282	-15.07297	11.27051
11.90704	-15.07297	11.27051
11.91125	-15.07297	11.27051
11.91547	-15.09494	11.27051
11.91968	-15.09494	11.27051
11.92421	-15.09494	11.27051
11.92850	-15.09494	11.27051
11.93281	-15.09494	11.27051
11.93703	-15.09494	11.27051
11.94125	-15.09494	11.27051
11.94545	-15.09494	11.27051
11.94965	-15.09494	11.27051
11.95385	-15.09494	11.27051
11.95827	-15.11691	11.27051
11.96247	-15.11691	11.27051
11.96666	-15.09494	11.27051
11.97085	-15.09494	11.27051
11.97504	-15.09494	11.27051
11.97923	-15.11691	11.27051
11.98342	-15.11691	11.27051
11.98773	-15.13888	11.27051
11.99195	-15.11691	11.27051
11.99615	-15.11691	11.27051
12.00034	-15.11691	11.27051
12.00452	-15.11691	11.27051
12.00871	-15.13888	11.27051
12.01290	-15.13888	11.27051
12.01732	-15.13888	11.27051
12.02153	-15.13888	11.27051
12.02572	-15.13888	11.27051
12.02991	-15.13888	11.27051
12.03410	-15.13888	11.27051
12.03829	-15.16086	11.27051
12.04250	-15.16086	11.27051
12.04674	-15.16086	11.27051
12.05103	-15.16086	11.27051
12.05523	-15.16086	11.27051
12.05952	-15.16086	11.27051
12.06371	-15.16086	11.27051
12.06790	-15.18283	11.27051
12.07207	-15.18283	11.27051
12.07625	-15.18283	11.27051
12.08055	-15.18283	11.27051
12.08475	-15.18283	11.27051
12.08894	-15.18283	11.27051
12.09313	-15.20480	11.27051
12.09732	-15.20480	11.27051
12.10150	-15.20480	11.27051
12.10569	-15.20480	11.27051
12.10999	-15.20480	11.27051
12.11419	-15.20480	11.27051
12.11838	-15.22677	11.27051
12.12257	-15.22677	11.27051
12.12677	-15.22677	11.27051
12.13096	-15.22677	11.27051
12.13515	-15.24875	11.27051
12.13958	-15.24875	11.27051
12.14380	-15.24875	11.27051
12.14801	-15.24875	11.27051
12.15220	-15.27072	11.27051
12.15638	-15.27072	11.27051
12.16068	-15.27072	11.27051
12.16487	-15.27072	11.27051
12.16910	-15.27072	11.27051
12.17338	-15.27072	11.27051
12.17758	-15.29269	11.27051
12.18177	-15.29269	11.27051
12.18595	-15.29269	11.27051
12.19014	-15.29269	11.27051
12.19433	-15.29269	11.27051
12.19851	-15.31466	11.27051
12.20284	-15.31466	11.27051
12.20705	-15.31466	11.27051
12.21124	-15.31466	11.27051
12.21543	-15.31466	11.27051
12.21961	-15.31466	11.27051
12.22380	-15.33664	11.27051
12.22801	-15.33664	11.27051
12.23230	-15.33664	11.27051
12.23650	-15.33664	11.27051
12.24071	-15.33664	11.27051
12.24491	-15.33664	11.27051
12.24910	-15.35861	11.27051
12.25329	-15.35861	11.27051
12.25748	-15.35861	11.27051
12.26202	-15.35861	11.27051
12.26623	-15.38058	11.27051
12.27042	-15.35861	11.27051
12.27460	-15.38058	11.27051
12.27879	-15.38058	11.27051
12.28298	-15.38058	11.27051
12.28717	-15.38058	11.27051
12.29140	-15.38058	11.27051
12.29569	-15.38058	11.27051
12.29989	-15.40256	11.27051
12.30407	-15.40256	11.27051
12.30826	-15.40256	11.27051
12.31245	-15.40256	11.27051
12.31664	-15.40256	11.27051
12.32082	-15.42453	11.27051
12.32511	-15.42453	11.27051
12.32931	-15.42453	11.27051
12.33350	-15.42453	11.27051
12.33768	-15.42453	11.27051
12.34189	-15.42453	11.27051
12.34609	-15.44650	11.27051
12.35028	-15.44650	11.27051
12.35459	-15.44650	11.27051
12.35880	-15.44650	11.27051
12.36310	-15.44650	11.27051
12.36728	-15.44650	11.27051
12.37147	-15.44650	11.27051
12.37565	-15.44650	11.27051
12.37984	-15.46847	11.27051
12.38429	-15.46847	11.27051
12.38851	-15.46847	11.27051
12.39270	-15.49045	11.27051
12.39689	-15.49045	11.27051
12.40108	-15.46847	11.27051
12.40526	-15.49045	11.27051
12.40945	-15.49045	11.27051
12.41368	-15.49045	11.27051
12.41796	-15.49045	11.27051
12.42216	-15.49045	11.27051
12.42635	-15.49045	11.27051
12.43055	-15.49045	11.27051
12.43475	-15.51242	11.27051
12.43894	-15.51242	11.27051
12.44314	-15.51242	11.27051
12.44745	-15.51242	11.27051
12.45167	-15.51242	11.27051
12.45587	-15.51242	11.27051
12.46007	-15.51242	11.27051
12.46437	-15.51242	11.27051
12.46855	-15.51242	11.27051
12.47274	-15.51242	11.27051
12.47704	-15.51242	11.27051
12.48125	-15.51242	11.27051
12.48545	-15.53439	11.27051
12.48964	-15.53439	11.27051
12.49383	-15.53439	11.27051
12.49802	-15.51242	11.27051
12.50220	-15.53439	11.27051
12.50663	-15.53439	11.27051
12.51084	-15.53439	11.27051
12.51503	-15.53439	11.27051
12.51922	-15.53439	11.27051
12.52341	-15.53439	11.27051
12.52760	-15.53439	11.27051
12.53178	-15.55636	11.27051
12.53603	-15.53439	11.27051
12.54031	-15.53439	11.27051
12.54452	-15.55636	11.27051
12.54871	-15.53439	11.27051
12.55290	-15.53439	11.27051
12.55709	-15.55636	11.27051
12.56127	-15.55636	11.27051
12.56557	-15.55636	11.27051
12.56986	-15.55636	11.27051
12.57406	-15.55636	11.27051
12.57825	-15.55636	11.27051
12.58244	-15.55636	11.27051
12.58663	-15.55636	11.27051
12.59082	-15.55636	11.27051
12.59500	-15.55636	11.27051
12.59930	-15.55636	11.27051
12.60351	-15.55636	11.27051
12.60770	-15.55636	11.27051
12.61189	-15.55636	11.27051
12.61607	-15.55636	11.27051
12.62026	-15.55636	11.27051
12.62444	-15.55636	11.27051
12.62886	-15.55636	11.27051
12.63307	-15.55636	11.27051
12.63726	-15.55636	11.27051
12.64147	-15.55636	11.27051
12.64566	-15.55636	11.27051
12.64985	-15.55636	11.27051
12.65404	-15.55636	11.27051
12.65827	-15.55636	11.27051
12.66254	-15.55636	11.27051
12.66685	-15.55636	11.27051
12.67103	-15.55636	11.27051
12.67522	-15.55636	11.27051
12.67941	-15.55636	11.27051
12.68360	-15.55636	11.27051
12.68778	-15.55636	11.27051
12.69209	-15.55636	11.27051
12.69629	-15.55636	11.27051
12.70048	-15.55636	11.27051
12.70466	-15.55636	11.27051
12.70885	-15.55636	11.27051
12.71304	-15.55636	11.27051
12.71722	-15.55636	11.27051
12.72152	-15.55636	11.27051
12.72577	-15.55636	11.27051
12.72998	-15.55636	11.27051
12.73418	-15.55636	11.27051
12.73837	-15.55636	11.27051
12.74260	-15.55636	11.27051
12.74679	-15.55636	11.27051
12.75121	-15.53439	11.27051
12.75544	-15.55636	11.27051
12.75964	-15.53439	11.27051
12.76383	-15.53439	11.27051
12.76814	-15.53439	11.27051
12.77233	-15.55636	11.27051
12.77653	-15.53439	11.27051
12.78077	-15.55636	11.27051
12.78504	-15.53439	11.27051
12.78924	-15.53439	11.27051
12.79343	-15.53439	11.27051
12.79762	-15.53439	11.27051
12.80182	-15.53439	11.27051
12.80601	-15.53439	11.27051
12.81020	-15.53439	11.27051
12.81450	-15.53439	11.27051
12.81870	-15.53439	11.27051
12.82289	-15.53439	11.27051
12.82709	-15.53439	11.27051
12.83128	-15.53439	11.27051
12.83547	-15.53439	11.27051
12.83965	-15.51242	11.27051
12.84399	-15.51242	11.27051
12.84820	-15.51242	11.27051
12.85239	-15.53439	11.27051
12.85658	-15.53439	11.27051
12.86076	-15.51242	11.27051
12.86495	-15.53439	11.27051
12.86924	-15.53439	11.27051
12.87367	-15.51242	11.27051
12.87788	-15.51242	11.27051
12.88207	-15.51242	11.27051
12.88625	-15.51242	11.27051
12.89044	-15.51242	11.27051
12.89463	-15.51242	11.27051
12.89881	-15.51242	11.27051
12.90305	-15.51242	11.27051
12.90732	-15.51242	11.27051
12.91152	-15.51242	11.27051
12.91571	-15.51242	11.27051
12.91990	-15.51242	11.27051
12.92407	-15.51242	11.27051
12.92825	-15.51242	11.27051
12.93244	-15.49045	11.27051
12.93673	-15.51242	11.27051
12.94096	-15.51242	11.27051
12.94516	-15.49045	11.27051
12.94935	-15.49045	11.27051
12.95354	-15.49045	11.27051
12.95773	-15.51242	11.27051
12.96191	-15.49045	11.27051
12.96621	-15.51242	11.27051
12.97053	-15.49045	11.27051
12.97473	-15.49045	11.27051
12.97891	-15.49045	11.27051
12.98310	-15.49045	11.27051
12.98729	-15.49045	11.27051
12.99148	-15.49045	11.27051
12.99589	-15.49045	11.27051
13.00009	-15.49045	11.27051
13.00428	-15.49045	11.27051
13.00848	-15.49045	11.27051
13.01267	-15.49045	11.27051
13.01685	-15.49045	11.27051
13.02104	-15.49045	11.27051
13.02527	-15.49045	11.27051
13.02953	-15.49045	11.27051
13.03373	-15.49045	11.27051
13.03793	-15.49045	11.27051
13.04214	-15.49045	11.27051
13.04633	-15.49045	11.27051
13.05053	-15.49045	11.27051
13.05472	-15.49045	11.27051
13.05901	-15.49045	11.27051
13.06321	-15.49045	11.27051
13.06740	-15.49045	11.27051
13.07170	-15.49045	11.27051
13.07589	-15.49045	11.27051
13.08007	-15.49045	11.27051
13.08425	-15.49045	11.27051
13.08855	-15.49045	11.27051
13.09361	-15.49045	11.27051
13.09781	-15.49045	11.27051
13.10200	-15.49045	11.27051
13.10619	-15.49045	11.27051
13.11038	-15.49045	11.27051
13.11457	-15.49045	11.27051
13.11886	-15.46847	11.27051
13.12307	-15.46847	11.27051
13.12726	-15.49045	11.27051
13.13145	-15.46847	11.27051
13.13563	-15.49045	11.27051
13.13984	-15.49045	11.27051
13.14405	-15.46847	11.27051
13.14851	-15.49045	11.27051
13.15272	-15.46847	11.27051
13.15692	-15.46847	11.27051
13.16111	-15.49045	11.27051
13.16530	-15.49045	11.27051
13.16948	-15.46847	11.27051
13.17377	-15.46847	11.27051
13.17801	-15.46847	11.27051
13.18228	-15.46847	11.27051
13.18648	-15.46847	11.27051
13.19067	-15.46847	11.27051
13.19486	-15.46847	11.27051
13.19905	-15.46847	11.27051
13.20323	-15.46847	11.27051
13.20744	-15.46847	11.27051
13.21174	-15.46847	11.27051
13.21596	-15.46847	11.27051
13.22015	-15.46847	11.27051
13.22433	-15.46847	11.27051
13.22852	-15.44650	11.27051
13.23272	-15.44650	11.27051
13.23690	-15.46847	11.27051
13.24121	-15.46847	11.27051
13.24543	-15.44650	11.27051
13.24962	-15.44650	11.27051
13.25381	-15.44650	11.27051
13.25799	-15.46847	11.27051
13.26218	-15.44650	11.27051
13.26637	-15.44650	11.27051
13.27078	-15.44650	11.27051
13.27510	-15.44650	11.27051
13.27929	-15.44650	11.27051
13.28347	-15.44650	11.27051
13.28766	-15.44650	11.27051
13.29185	-15.44650	11.27051
13.29604	-15.44650	11.27051
13.30027	-15.44650	11.27051
13.30455	-15.44650	11.27051
13.30875	-15.44650	11.27051
13.31294	-15.42453	11.27051
13.31712	-15.42453	11.27051
13.32131	-15.42453	11.27051
13.32550	-15.42453	11.27051
13.32969	-15.42453	11.27051
13.33398	-15.42453	11.27051
13.33818	-15.42453	11.27051
13.34239	-15.42453	11.27051
13.34659	-15.42453	11.27051
13.35078	-15.42453	11.27051
13.35497	-15.42453	11.27051
13.35916	-15.42453	11.27051
13.36346	-15.42453	11.27051
13.36766	-15.42453	11.27051
13.37187	-15.42453	11.27051
13.37618	-15.42453	11.27051
13.38036	-15.40256	11.27051
13.38455	-15.40256	11.27051
13.38874	-15.40256	11.27051
13.39314	-15.42453	11.27051
13.39735	-15.40256	11.27051
13.40154	-15.40256	11.27051
13.40572	-15.40256	11.27051
13.40991	-15.40256	11.27051
13.41410	-15.40256	11.27051
13.41832	-15.40256	11.27051
13.42256	-15.40256	11.27051
13.42682	-15.40256	11.27051
13.43103	-15.40256	11.27051
13.43524	-15.40256	11.27051
13.43943	-15.40256	11.27051
13.44364	-15.38058	11.27051
13.44784	-15.40256	11.27051
13.45203	-15.40256	11.27051
13.45634	-15.40256	11.27051
13.46054	-15.38058	11.27051
13.46473	-15.38058	11.27051
13.46892	-15.38058	11.27051
13.47311	-15.38058	11.27051
13.47740	-15.38058	11.27051
13.48159	-15.38058	11.27051
13.48589	-15.38058	11.27051
13.49013	-15.35861	11.27051
13.49433	-15.35861	11.27051
13.49852	-15.35861	11.27051
13.50272	-15.35861	11.27051
13.50692	-15.35861	11.27051
13.51111	-15.35861	11.27051
13.51550	-15.35861	11.27051
13.51973	-15.35861	11.27051
13.52392	-15.35861	11.27051
13.52807	-15.35861	11.27051
13.53225	-15.35861	11.27051
13.53644	-15.35861	11.27051
13.54062	-15.35861	11.27051
13.54488	-15.33664	11.27051
13.54915	-15.33664	11.27051
13.55335	-15.33664	11.27051
13.55754	-15.33664	11.27051
13.56173	-15.33664	11.27051
13.56591	-15.33664	11.27051
13.57010	-15.33664	11.27051
13.57429	-15.33664	11.27051
13.57868	-15.33664	11.27051
13.58288	-15.33664	11.27051
13.58707	-15.33664	11.27051
13.59126	-15.31466	11.27051
13.59544	-15.33664	11.27051
13.59963	-15.33664	11.27051
13.60382	-15.33664	11.27051
13.60813	-15.31466	11.27051
13.61233	-15.31466	11.27051
13.61652	-15.31466	11.27051
13.62071	-15.31466	11.27051
13.62490	-15.31466	11.27051
13.62908	-15.31466	11.27051
13.63327	-15.31466	11.27051
13.63770	-15.31466	11.27051
13.64194	-15.31466	11.27051
13.64614	-15.31466	11.27051
13.65033	-15.29269	11.27051
13.65452	-15.29269	11.27051
13.65870	-15.29269	11.27051
13.66289	-15.29269	11.27051
13.66712	-15.29269	11.27051
13.67140	-15.29269	11.27051
13.67560	-15.29269	11.27051
13.67990	-15.29269	11.27051
13.68406	-15.29269	11.27051
13.68825	-15.29269	11.27051
13.69244	-15.29269	11.27051
13.69663	-15.29269	11.27051
13.70092	-15.29269	11.27051
13.70513	-15.29269	11.27051
13.70932	-15.27072	11.27051
13.71350	-15.27072	11.27051
13.71769	-15.27072	11.27051
13.72188	-15.27072	11.27051
13.72606	-15.27072	11.27051
13.73036	-15.27072	11.27051
13.73457	-15.27072	11.27051
13.73875	-15.27072	11.27051
13.74296	-15.27072	11.27051
13.74716	-15.27072	11.27051
13.75135	-15.27072	11.27051
13.75554	-15.27072	11.27051
13.75999	-15.24875	11.27051
13.76421	-15.24875	11.27051
13.76840	-15.24875	11.27051
13.77259	-15.24875	11.27051
13.77677	-15.24875	11.27051
13.78107	-15.24875	11.27051
13.78525	-15.24875	11.27051
13.78948	-15.24875	11.27051
13.79375	-15.24875	11.27051
13.79794	-15.24875	11.27051
13.80213	-15.24875	11.27051
13.80632	-15.24875	11.27051
13.81051	-15.24875	11.27051
13.81469	-15.24875	11.27051
13.81888	-15.22677	11.27051
13.82317	-15.22677	11.27051
13.82737	-15.22677	11.27051
13.83156	-15.22677	11.27051
13.83575	-15.22677	11.27051
13.83995	-15.22677	11.27051
13.84416	-15.22677	11.27051
13.84836	-15.22677	11.27051
13.85266	-15.22677	11.27051
13.85687	-15.22677	11.27051
13.86105	-15.22677	11.27051
13.86524	-15.22677	11.27051
13.86943	-15.22677	11.27051
13.87362	-15.22677	11.27051
13.87780	-15.22677	11.27051
13.88232	-15.22677	11.27051
13.88653	-15.22677	11.27051
13.89072	-15.22677	11.27051
13.89490	-15.22677	11.27051
13.89909	-15.22677	11.27051
13.90328	-15.22677	11.27051
13.90746	-15.22677	11.27051
13.91169	-15.20480	11.27051
13.91597	-15.22677	11.27051
13.92017	-15.22677	11.27051
13.92435	-15.22677	11.27051
13.92854	-15.22677	11.27051
13.93273	-15.22677	11.27051
13.93691	-15.20480	11.27051
13.94110	-15.20480	11.27051
13.94541	-15.20480	11.27051
13.94962	-15.22677	11.27051
13.95381	-15.20480	11.27051
13.95800	-15.20480	11.27051
13.96219	-15.20480	11.27051
13.96638	-15.22677	11.27051
13.97056	-15.22677	11.27051
13.97486	-15.20480	11.27051
13.97907	-15.20480	11.27051
13.98336	-15.20480	11.27051
13.98755	-15.20480	11.27051
13.99174	-15.20480	11.27051
13.99594	-15.22677	11.27051
14.00013	-15.22677	11.27051
14.00456	-15.22677	11.27051
14.00877	-15.22677	11.27051
14.01296	-15.20480	11.27051
14.01715	-15.22677	11.27051
14.02134	-15.20480	11.27051
14.02552	-15.22677	11.27051
14.02971	-15.22677	11.27051
14.03394	-15.22677	11.27051
14.03820	-15.20480	11.27051
14.04242	-15.22677	11.27051
14.04662	-15.20480	11.27051
14.05082	-15.22677	11.27051
14.05500	-15.22677	11.27051
14.05919	-15.22677	11.27051
14.06338	-15.22677	11.27051
14.06767	-15.22677	11.27051
14.07188	-15.22677	11.27051
14.07607	-15.22677	11.27051
14.08025	-15.22677	11.27051
14.08455	-15.22677	11.27051
14.08873	-15.22677	11.27051
14.09292	-15.22677	11.27051
14.09721	-15.22677	11.27051
14.10142	-15.22677	11.27051
14.10561	-15.22677	11.27051
14.10979	-15.22677	11.27051
14.11398	-15.22677	11.27051
14.11817	-15.22677	11.27051
14.12235	-15.22677	11.27051
14.12677	-15.24875	11.27051
14.13098	-15.22677	11.27051
14.13517	-15.24875	11.27051
14.13936	-15.24875	11.27051
14.14357	-15.22677	11.27051
14.14777	-15.24875	11.27051
14.15197	-15.24875	11.27051
14.15620	-15.24875	11.27051
14.16048	-15.24875	11.27051
14.16468	-15.24875	11.27051
14.16887	-15.24875	11.27051
14.17306	-15.24875	11.27051
14.17725	-15.24875	11.27051
14.18144	-15.24875	11.27051
14.18573	-15.24875	11.27051
14.19001	-15.27072	11.27051
14.19421	-15.27072	11.27051
14.19840	-15.27072	11.27051
14.20259	-15.27072	11.27051
14.20680	-15.27072	11.27051
14.21100	-15.27072	11.27051
14.21519	-15.27072	11.27051
14.21949	-15.27072	11.27051
14.22370	-15.27072	11.27051
14.22789	-15.27072	11.27051
14.23207	-15.29269	11.27051
14.23625	-15.29269	11.27051
14.24044	-15.29269	11.27051
14.24464	-15.29269	11.27051
14.24907	-15.29269	11.27051
14.25329	-15.29269	11.27051
14.25749	-15.29269	11.27051
14.26168	-15.29269	11.27051
14.26587	-15.31466	11.27051
14.27007	-15.31466	11.27051
14.27426	-15.31466	11.27051
14.27849	-15.31466	11.27051
14.28276	-15.31466	11.27051
14.28706	-15.33664	11.27051
14.29125	-15.33664	11.27051
14.29544	-15.33664	11.27051
14.29962	-15.33664	11.27051
14.30381	-15.33664	11.27051
14.30800	-15.33664	11.27051
14.31229	-15.35861	11.27051
14.31649	-15.35861	11.27051
14.32068	-15.35861	11.27051
14.32487	-15.35861	11.27051
14.32905	-15.35861	11.27051
14.33324	-15.38058	11.27051
14.33742	-15.38058	11.27051
14.34172	-15.38058	11.27051
14.34595	-15.38058	11.27051
14.35015	-15.38058	11.27051
14.35435	-15.38058	11.27051
14.35855	-15.38058	11.27051
14.36274	-15.40256	11.27051
14.36695	-15.40256	11.27051
14.37137	-15.40256	11.27051
14.37558	-15.42453	11.27051
14.37977	-15.42453	11.27051
14.38397	-15.42453	11.27051
14.38828	-15.42453	11.27051
14.39247	-15.42453	11.27051
14.39666	-15.42453	11.27051
14.40089	-15.44650	11.27051
14.40516	-15.44650	11.27051
14.40935	-15.44650	11.27051
14.41354	-15.44650	11.27051
14.41773	-15.44650	11.27051
14.42193	-15.44650	11.27051
14.42613	-15.46847	11.27051
14.43033	-15.46847	11.27051
14.43463	-15.46847	11.27051
14.43884	-15.46847	11.27051
14.44305	-15.49045	11.27051
14.44727	-15.49045	11.27051
14.45146	-15.49045	11.27051
14.45565	-15.49045	11.27051
14.45985	-15.51242	11.27051
14.46417	-15.51242	11.27051
14.46838	-15.51242	11.27051
14.47257	-15.51242	11.27051
14.47676	-15.51242	11.27051
14.48095	-15.53439	11.27051
14.48514	-15.53439	11.27051
14.48943	-15.53439	11.27051
14.49391	-15.53439	11.27051
14.49812	-15.53439	11.27051
14.50232	-15.55636	11.27051
14.50652	-15.55636	11.27051
14.51072	-15.55636	11.27051
14.51491	-15.55636	11.27051
14.51909	-15.57834	11.27051
14.52334	-15.57834	11.27051
14.52761	-15.57834	11.27051
14.53182	-15.57834	11.27051
14.53602	-15.57834	11.27051
14.54021	-15.57834	11.27051
14.54441	-15.60031	11.27051
14.54860	-15.60031	11.27051
14.55279	-15.60031	11.27051
14.55708	-15.62228	11.27051
14.56128	-15.62228	11.27051
14.56547	-15.62228	11.27051
14.56966	-15.62228	11.27051
14.57385	-15.62228	11.27051
14.57804	-15.64425	11.27051
14.58222	-15.64425	11.27051
14.58652	-15.64425	11.27051
14.59084	-15.64425	11.27051
14.59503	-15.64425	11.27051
14.59922	-15.66623	11.27051
14.60341	-15.66623	11.27051
14.60760	-15.66623	11.27051
14.61178	-15.68820	11.27051
14.61622	-15.68820	11.27051
14.62043	-15.68820	11.27051
14.62462	-15.68820	11.27051
14.62881	-15.68820	11.27051
14.63301	-15.71017	11.27051
14.63721	-15.71017	11.27051
14.64140	-15.71017	11.27051
14.64567	-15.71017	11.27051
14.64995	-15.71017	11.27051
14.65415	-15.71017	11.27051
14.65834	-15.73214	11.27051
14.66253	-15.73214	11.27051
14.66671	-15.73214	11.27051
14.67090	-15.75412	11.27051
14.67509	-15.75412	11.27051
14.67938	-15.75412	11.27051
14.68358	-15.75412	11.27051
14.68777	-15.75412	11.27051
14.69208	-15.77609	11.27051
14.69627	-15.77609	11.27051
14.70045	-15.77609	11.27051
14.70464	-15.77609	11.27051
14.70893	-15.77609	11.27051
14.71314	-15.79806	11.27051
14.71733	-15.79806	11.27051
14.72152	-15.79806	11.27051
14.72570	-15.79806	11.27051
14.72989	-15.79806	11.27051
14.73408	-15.79806	11.27051
14.73849	-15.82004	11.27051
14.74272	-15.82004	11.27051
14.74692	-15.82004	11.27051
14.75111	-15.82004	11.27051
14.75530	-15.84201	11.27051
14.75949	-15.84201	11.27051
14.76368	-15.84201	11.27051
14.76794	-15.84201	11.27051
14.77221	-15.84201	11.27051
14.77641	-15.86398	11.27051
14.78060	-15.86398	11.27051
14.78479	-15.86398	11.27051
14.78898	-15.86398	11.27051
14.79327	-15.86398	11.27051
14.79746	-15.86398	11.27051
14.80174	-15.88595	11.27051
14.80595	-15.88595	11.27051
14.81014	-15.88595	11.27051
14.81432	-15.90793	11.27051
14.81851	-15.90793	11.27051
14.82270	-15.90793	11.27051
14.82688	-15.90793	11.27051
14.83118	-15.90793	11.27051
14.83538	-15.90793	11.27051
14.83957	-15.92990	11.27051
14.84379	-15.90793	11.27051
14.84799	-15.92990	11.27051
14.85218	-15.92990	11.27051
14.85637	-15.92990	11.27051
14.86079	-15.92990	11.27051
14.86500	-15.92990	11.27051
14.86919	-15.92990	11.27051
14.87338	-15.95187	11.27051
14.87757	-15.95187	11.27051
14.88176	-15.95187	11.27051
14.88594	-15.95187	11.27051
14.89017	-15.95187	11.27051
14.89459	-15.97384	11.27051
14.89879	-15.97384	11.27051
14.90299	-15.97384	11.27051
14.90718	-15.97384	11.27051
14.91137	-15.97384	11.27051
14.91556	-15.97384	11.27051
14.91975	-15.97384	11.27051
14.92407	-15.97384	11.27051
14.92828	-15.97384	11.27051
14.93247	-15.99582	11.27051
14.93666	-15.99582	11.27051
14.94085	-15.97384	11.27051
14.94505	-15.99582	11.27051
14.94924	-15.99582	11.27051
14.95354	-15.99582	11.27051
14.95776	-15.99582	11.27051
14.96195	-15.99582	11.27051
14.96614	-15.99582	11.27051
14.97032	-15.99582	11.27051
14.97451	-15.99582	11.27051
14.97870	-16.01779	11.27051
14.98311	-15.99582	11.27051
14.98732	-15.99582	11.27051
14.99151	-16.01779	11.27051
14.99580	-15.99582	11.27051
14.99999	-15.99582	11.27051
15.00462	-16.01779	8.67663
15.00880	-16.01779	8.67663
15.01304	-16.01779	8.67663
15.01731	-16.01779	8.67663
15.02150	-15.99582	8.67663
15.02569	-16.01779	8.67663
15.02987	-16.01779	8.67663
15.03405	-15.99582	8.67663
15.03824	-15.99582	8.67663
15.04242	-16.01779	8.67663
15.04672	-16.01779	8.67663
15.05093	-16.01779	8.67663
15.05513	-16.01779	8.67663
15.05933	-16.01779	8.67663
15.06352	-16.01779	8.67663
15.06771	-16.01779	8.67663
15.07189	-16.01779	8.67663
15.07619	-16.01779	8.67663
15.08039	-15.99582	8.67663
15.08458	-16.01779	8.67663
15.08877	-16.01779	8.67663
15.09296	-15.99582	8.67663
15.09715	-15.99582	8.67663
15.10133	-15.99582	8.67663
15.10585	-15.99582	8.67663
15.11005	-15.99582	8.67663
15.11424	-15.99582	8.67663
15.11843	-15.99582	8.67663
15.12262	-15.99582	8.67663
15.12681	-15.99582	8.67663
15.13099	-15.99582	8.67663
15.13522	-15.97384	8.67663
15.13949	-15.97384	8.67663
15.14370	-15.97384	8.67663
15.14790	-15.97384	8.67663
15.15207	-15.97384	8.67663
15.15626	-15.95187	8.67663
15.16044	-15.95187	8.67663
15.16463	-15.92990	8.67663
15.16892	-15.92990	8.67663
15.17313	-15.92990	8.67663
15.17732	-15.92990	8.67663
15.18151	-15.92990	8.67663
15.18569	-15.90793	8.67663
15.18988	-15.90793	8.67663
15.19406	-15.88595	8.67663
15.19836	-15.88595	8.67663
15.20256	-15.88595	8.67663
15.20690	-15.88595	8.67663
15.21109	-15.86398	8.67663
15.21528	-15.86398	8.67663
15.21947	-15.84201	8.67663
15.22366	-15.84201	8.67663
15.22808	-15.82004	8.67663
15.23230	-15.82004	8.67663
15.23649	-15.79806	8.67663
15.24068	-15.79806	8.67663
15.24488	-15.77609	8.67663
15.24907	-15.77609	8.67663
15.25326	-15.77609	8.67663
15.25750	-15.75412	8.67663
15.26177	-15.73214	8.67663
15.26597	-15.71017	8.67663
15.27016	-15.71017	8.67663
15.27435	-15.68820	8.67663
15.27853	-15.68820	8.67663
15.28272	-15.66623	8.67663
15.28691	-15.66623	8.67663
15.29120	-15.64425	8.67663
15.29540	-15.62228	8.67663
15.29959	-15.62228	8.67663
15.30378	-15.60031	8.67663
15.30809	-15.57834	8.67663
15.31227	-15.55636	8.67663
15.31646	-15.55636	8.67663
15.32076	-15.53439	8.67663
15.32497	-15.51242	8.67663
15.32916	-15.51242	8.67663
15.33335	-15.49045	8.67663
15.33753	-15.46847	8.67663
15.34172	-15.44650	8.67663
15.34593	-15.42453	8.67663
15.35036	-15.40256	8.67663
15.35458	-15.38058	8.67663
15.35877	-15.38058	8.67663
15.36296	-15.38058	8.67663
15.36714	-15.33664	8.67663
15.37133	-15.31466	8.67663
15.37551	-15.29269	8.67663
15.37974	-15.27072	8.67663
15.38404	-15.27072	8.67663
15.38824	-15.24875	8.67663
15.39243	-15.22677	8.67663
15.39661	-15.20480	8.67663
15.40081	-15.18283	8.67663
15.40500	-15.16086	8.67663
15.40930	-15.16086	8.67663
15.41359	-15.13888	8.67663
15.41780	-15.11691	8.67663
15.42201	-15.07297	8.67663
15.42620	-15.05099	8.67663
15.43040	-15.05099	8.67663
15.43460	-15.05099	8.67663
15.43879	-15.00705	8.67663
15.44309	-14.98507	8.67663
15.44732	-14.96310	8.67663
15.45152	-14.94113	8.67663
15.45572	-14.91916	8.67663
15.45992	-14.87521	8.67663
15.46407	-14.87521	8.67663
15.46826	-14.85324	8.67663
15.47268	-14.83127	8.67663
15.47689	-14.80929	8.67663
15.48108	-14.76535	8.67663
15.48527	-14.74338	8.67663
15.48946	-14.72140	8.67663
15.49367	-14.72140	8.67663
15.49786	-14.69943	8.67663
15.50210	-14.67746	8.67663
15.50638	-14.65548	8.67663
15.51069	-14.61154	8.67663
15.51489	-14.61154	8.67663
15.51908	-14.58957	8.67663
15.52327	-14.54562	8.67663
15.52745	-14.52365	8.67663
15.53164	-14.50168	8.67663
15.53595	-14.47970	8.67663
15.54015	-14.47970	8.67663
15.54437	-14.43576	8.67663
15.54856	-14.41379	8.67663
15.55275	-14.39181	8.67663
15.55694	-14.36984	8.67663
15.56113	-14.32589	8.67663
15.56542	-14.32589	8.67663
15.56963	-14.30392	8.67663
15.57382	-14.25998	8.67663
15.57801	-14.23800	8.67663
15.58219	-14.21603	8.67663
15.58638	-14.17209	8.67663
15.59057	-14.17209	8.67663
15.59501	-14.15011	8.67663
15.59922	-14.10617	8.67663
15.60341	-14.08420	8.67663
15.60760	-14.06222	8.67663
15.61190	-14.01828	8.67663
15.61607	-13.99631	8.67663
15.62025	-13.99631	8.67663
15.62449	-13.99631	8.67663
15.62875	-13.93039	8.67663
15.63295	-13.90841	8.67663
15.63713	-13.88644	8.67663
15.64132	-13.84250	8.67663
15.64554	-13.84250	8.67663
15.64974	-13.82052	8.67663
15.65392	-13.77658	8.67663
15.65822	-13.77658	8.67663
15.66242	-13.73263	8.67663
15.66661	-13.71066	8.67663
15.67080	-13.66672	8.67663
15.67499	-13.66672	8.67663
15.67918	-13.62277	8.67663
15.68337	-13.62277	8.67663
15.68767	-13.57882	8.67663
15.69187	-13.55685	8.67663
15.69606	-13.51291	8.67663
15.70025	-13.51291	8.67663
15.70444	-13.46896	8.67663
15.70862	-13.46896	8.67663
15.71291	-13.42502	8.67663
15.71734	-13.40304	8.67663
15.72155	-13.35910	8.67663
15.72574	-13.35910	8.67663
15.72993	-13.33713	8.67663
15.73412	-13.29318	8.67663
15.73831	-13.27121	8.67663
15.74249	-13.24923	8.67663
15.74674	-13.20529	8.67663
15.75103	-13.18332	8.67663
15.75523	-13.18332	8.67663
15.75943	-13.16134	8.67663
15.76362	-13.11740	8.67663
15.76781	-13.09543	8.67663
15.77201	-13.05148	8.67663
15.77620	-13.02951	8.67663
15.78049	-13.02951	8.67663
15.78469	-13.00754	8.67663
15.78888	-12.96359	8.67663
15.79307	-12.94162	8.67663
15.79726	-12.89767	8.67663
15.80145	-12.89767	8.67663
15.80564	-12.87570	8.67663
15.80994	-12.85373	8.67663
15.81425	-12.80978	8.67663
15.81844	-12.78781	8.67663
15.82262	-12.76584	8.67663
15.82681	-12.74386	8.67663
15.83100	-12.74386	8.67663
15.83518	-12.69992	8.67663
15.83962	-12.67795	8.67663
15.84383	-12.63400	8.67663
15.84808	-12.61203	8.67663
15.85228	-12.59006	8.67663
15.85649	-12.59006	8.67663
15.86070	-12.56808	8.67663
15.86491	-12.52414	8.67663
15.86993	-12.50216	8.67663
15.87423	-12.48019	8.67663
15.87845	-12.45822	8.67663
15.88265	-12.41427	8.67663
15.88687	-12.39230	8.67663
15.89108	-12.39230	8.67663
15.89531	-12.34836	8.67663
15.90028	-12.34836	8.67663
15.90458	-12.30441	8.67663
15.90879	-12.28244	8.67663
15.91298	-12.26047	8.67663
15.91729	-12.23849	8.67663
15.92148	-12.21652	8.67663
15.92567	-12.21652	8.67663
15.92991	-12.17257	8.67663
15.93419	-12.17257	8.67663
15.93839	-12.12863	8.67663
15.94258	-12.10666	8.67663
15.94677	-12.10666	8.67663
15.95097	-12.08468	8.67663
15.95516	-12.04074	8.67663
15.95935	-12.04074	8.67663
15.96366	-11.99679	8.67663
15.96787	-11.99679	8.67663
15.97208	-11.95285	8.67663
15.97627	-11.95285	8.67663
15.98046	-11.93088	8.67663
15.98465	-11.90890	8.67663
15.98883	-11.86496	8.67663
15.99314	-11.88693	8.67663
15.99734	-11.84298	8.67663
16.00153	-11.82101	8.67663
16.00573	-11.82101	8.67663
16.00993	-11.79904	8.67663
16.01412	-11.75509	8.67663
16.01841	-11.75509	8.67663
16.02280	-11.71115	8.67663
16.02702	-11.71115	8.67663
16.03121	-11.71115	8.67663
16.03540	-11.68918	8.67663
16.03959	-11.66720	8.67663
16.04378	-11.62326	8.67663
16.04797	-11.60129	8.67663
16.05222	-11.60129	8.67663
16.05650	-11.57931	8.67663
16.06070	-11.55734	8.67663
16.06489	-11.55734	8.67663
16.06908	-11.53537	8.67663
16.07327	-11.49142	8.67663
16.07745	-11.49142	8.67663
16.08164	-11.49142	8.67663
16.08594	-11.46945	8.67663
16.09015	-11.44748	8.67663
16.09433	-11.42550	8.67663
16.09852	-11.40353	8.67663
16.10271	-11.40353	8.67663
16.10689	-11.40353	8.67663
16.11108	-11.35959	8.67663
16.11538	-11.35959	8.67663
16.11970	-11.33761	8.67663
16.12389	-11.31564	8.67663
16.12807	-11.29367	8.67663
16.13226	-11.29367	8.67663
16.13644	-11.27170	8.67663
16.14063	-11.27170	8.67663
16.14500	-11.22775	8.67663
16.14922	-11.22775	8.67663
16.15341	-11.20578	8.67663
16.15760	-11.20578	8.67663
16.16178	-11.20578	8.67663
16.16597	-11.18381	8.67663
16.17016	-11.16183	8.67663
16.17438	-11.16183	8.67663
16.17865	-11.11789	8.67663
16.18284	-11.11789	8.67663
16.18703	-11.11789	8.67663
16.19122	-11.11789	8.67663
16.19541	-11.07394	8.67663
16.19959	-11.07394	8.67663
16.20378	-11.05197	8.67663
16.20810	-11.05197	8.67663
16.21230	-11.03000	8.67663
16.21649	-11.03000	8.67663
16.22079	-11.00802	8.67663
16.22498	-11.00802	8.67663
16.22916	-10.98605	8.67663
16.23335	-10.98605	8.67663
16.23766	-10.98605	8.67663
16.24187	-10.96408	8.67663
16.24606	-10.96408	8.67663
16.25024	-10.94211	8.67663
16.25443	-10.92013	8.67663
16.25862	-10.92013	8.67663
16.26280	-10.89816	8.67663
16.26722	-10.89816	8.67663
16.27143	-10.89816	8.67663
16.27562	-10.89816	8.67663
16.27981	-10.87619	8.67663
16.28400	-10.87619	8.67663
16.28819	-10.85422	8.67663
16.29238	-10.85422	8.67663
16.29661	-10.85422	8.67663
16.30088	-10.83224	8.67663
16.30508	-10.83224	8.67663
16.30927	-10.83224	8.67663
16.31346	-10.83224	8.67663
16.31764	-10.83224	8.67663
16.32193	-10.83224	8.67663
16.32612	-10.81027	8.67663
16.33041	-10.81027	8.67663
16.33462	-10.78830	8.67663
16.33881	-10.78830	8.67663
16.34299	-10.78830	8.67663
16.34718	-10.78830	8.67663
16.35136	-10.78830	8.67663
16.35556	-10.78830	8.67663
16.35985	-10.76632	8.67663
16.36407	-10.78830	8.67663
16.36826	-10.78830	8.67663
16.37245	-10.76632	8.67663
16.37664	-10.76632	8.67663
16.38082	-10.76632	8.67663
16.38501	-10.76632	8.67663
16.38943	-10.76632	8.67663
16.39363	-10.76632	8.67663
16.39782	-10.76632	8.67663
16.40201	-10.76632	8.67663
16.40619	-10.76632	8.67663
16.41038	-10.76632	8.67663
16.41456	-10.76632	8.67663
16.41879	-10.76632	8.67663
16.42317	-10.76632	8.67663
16.42736	-10.76632	8.67663
16.43158	-10.76632	8.67663
16.43577	-10.76632	8.67663
16.43997	-10.76632	8.67663
16.44416	-10.76632	8.67663
16.44835	-10.76632	8.67663
16.45265	-10.78830	8.67663
16.45686	-10.76632	8.67663
16.46106	-10.78830	8.67663
16.46525	-10.78830	8.67663
16.46943	-10.78830	8.67663
16.47362	-10.78830	8.67663
16.47781	-10.78830	8.67663
16.48211	-10.78830	8.67663
16.48634	-10.81027	8.67663
16.49053	-10.81027	8.67663
16.49472	-10.81027	8.67663
16.49891	-10.81027	8.67663
16.50309	-10.83224	8.67663
16.50729	-10.83224	8.67663
16.51163	-10.83224	8.67663
16.51587	-10.83224	8.67663
16.52007	-10.85422	8.67663
16.52437	-10.85422	8.67663
16.52856	-10.85422	8.67663
16.53274	-10.85422	8.67663
16.53693	-10.87619	8.67663
16.54118	-10.87619	8.67663
16.54545	-10.89816	8.67663
16.54964	-10.89816	8.67663
16.55383	-10.89816	8.67663
16.55803	-10.92013	8.67663
16.56222	-10.94211	8.67663
16.56640	-10.92013	8.67663
16.57060	-10.96408	8.67663
16.57490	-10.94211	8.67663
16.57910	-10.94211	8.67663
16.58329	-10.98605	8.67663
16.58749	-10.98605	8.67663
16.59168	-10.98605	8.67663
16.59587	-11.00802	8.67663
16.60008	-11.00802	8.67663
16.60439	-11.00802	8.67663
16.60859	-11.03000	8.67663
16.61280	-11.03000	8.67663
16.61699	-11.05197	8.67663
16.62118	-11.07394	8.67663
16.62548	-11.07394	8.67663
16.62966	-11.07394	8.67663
16.63404	-11.09591	8.67663
16.63826	-11.11789	8.67663
16.64245	-11.11789	8.67663
16.64663	-11.13986	8.67663
16.65082	-11.13986	8.67663
16.65501	-11.18381	8.67663
16.65920	-11.18381	8.67663
16.66344	-11.18381	8.67663
16.66771	-11.20578	8.67663
16.67191	-11.22775	8.67663
16.67607	-11.24972	8.67663
16.68028	-11.24972	8.67663
16.68447	-11.27170	8.67663
16.68866	-11.27170	8.67663
16.69285	-11.29367	8.67663
16.69714	-11.29367	8.67663
16.70135	-11.33761	8.67663
16.70555	-11.33761	8.67663
16.70974	-11.33761	8.67663
16.71393	-11.35959	8.67663
16.71811	-11.38156	8.67663
16.72230	-11.38156	8.67663
16.72670	-11.42550	8.67663
16.73091	-11.42550	8.67663
16.73510	-11.44748	8.67663
16.73929	-11.44748	8.67663
16.74347	-11.46945	8.67663
16.74766	-11.49142	8.67663
16.75185	-11.51339	8.67663
16.75627	-11.51339	8.67663
16.76048	-11.55734	8.67663
16.76466	-11.55734	8.67663
16.76885	-11.55734	8.67663
16.77304	-11.57931	8.67663
16.77723	-11.60129	8.67663
16.78141	-11.62326	8.67663
16.78564	-11.64523	8.67663
16.78992	-11.64523	8.67663
16.79412	-11.64523	8.67663
16.79831	-11.68918	8.67663
16.80249	-11.71115	8.67663
16.80668	-11.71115	8.67663
16.81087	-11.73312	8.67663
16.81505	-11.73312	8.67663
16.81935	-11.75509	8.67663
16.82356	-11.79904	8.67663
16.82785	-11.79904	8.67663
16.83205	-11.82101	8.67663
16.83623	-11.84298	8.67663
16.84042	-11.84298	8.67663
16.84460	-11.86496	8.67663
16.84890	-11.88693	8.67663
16.85310	-11.90890	8.67663
16.85730	-11.93088	8.67663
16.86151	-11.95285	8.67663
16.86571	-11.97482	8.67663
16.86991	-11.97482	8.67663
16.87410	-11.99679	8.67663
16.87849	-11.99679	8.67663
16.88271	-12.04074	8.67663
16.88690	-12.04074	8.67663
16.89110	-12.06271	8.67663
16.89529	-12.06271	8.67663
16.89948	-12.08468	8.67663
16.90367	-12.10666	8.67663
16.90791	-12.15060	8.67663
16.91215	-12.15060	8.67663
16.91635	-12.19455	8.67663
16.92054	-12.19455	8.67663
16.92473	-12.19455	8.67663
16.92902	-12.21652	8.67663
16.93321	-12.23849	8.67663
16.93739	-12.26047	8.67663
16.94168	-12.28244	8.67663
16.94589	-12.30441	8.67663
16.95007	-12.30441	8.67663
16.95426	-12.32638	8.67663
16.95845	-12.34836	8.67663
16.96265	-12.37033	8.67663
16.96683	-12.39230	8.67663
16.97114	-12.39230	8.67663
16.97535	-12.41427	8.67663
16.97954	-12.41427	8.67663
16.98373	-12.43625	8.67663
16.98793	-12.45822	8.67663
16.99213	-12.48019	8.67663
16.99631	-12.48019	8.67663
17.00070	-12.52414	8.67663
17.00492	-12.52414	8.67663
17.00911	-12.52414	8.67663
17.01330	-12.56808	8.67663
17.01749	-12.56808	8.67663
17.02168	-12.59006	8.67663
17.02586	-12.61203	8.67663
17.03021	-12.61203	8.67663
17.03448	-12.63400	8.67663
17.03868	-12.65597	8.67663
17.04287	-12.65597	8.67663
17.04705	-12.67795	8.67663
17.05124	-12.69992	8.67663
17.05543	-12.69992	8.67663
17.05962	-12.72189	8.67663
17.06394	-12.74386	8.67663
17.06815	-12.76584	8.67663
17.07234	-12.78781	8.67663
17.07653	-12.78781	8.67663
17.08071	-12.78781	8.67663
17.08490	-12.80978	8.67663
17.08909	-12.85373	8.67663
17.09338	-12.85373	8.67663
17.09763	-12.89767	8.67663
17.10182	-12.89767	8.67663
17.10601	-12.89767	8.67663
17.11020	-12.91964	8.67663
17.11439	-12.91964	8.67663
17.11857	-12.94162	8.67663
17.12292	-12.96359	8.67663
17.12714	-12.96359	8.67663
17.13144	-12.96359	8.67663
17.13562	-13.00754	8.67663
17.13981	-13.00754	8.67663
17.14401	-13.02951	8.67663
17.14820	-13.05148	8.67663
17.15244	-13.05148	8.67663
17.15671	-13.07345	8.67663
17.16090	-13.07345	8.67663
17.16509	-13.09543	8.67663
17.16928	-13.11740	8.67663
17.17347	-13.13937	8.67663
17.17766	-13.13937	8.67663
17.18184	-13.13937	8.67663
17.18614	-13.16134	8.67663
17.19035	-13.18332	8.67663
17.19455	-13.20529	8.67663
17.19874	-13.20529	8.67663
17.20293	-13.20529	8.67663
17.20712	-13.24923	8.67663
17.21131	-13.24923	8.67663
17.21561	-13.24923	8.67663
17.21981	-13.27121	8.67663
17.22401	-13.29318	8.67663
17.22820	-13.31515	8.67663
17.23250	-13.31515	8.67663
17.23668	-13.33713	8.67663
17.24087	-13.33713	8.67663
17.24525	-13.33713	8.67663
17.24946	-13.35910	8.67663
17.25366	-13.35910	8.67663
17.25785	-13.38107	8.67663
17.26204	-13.40304	8.67663
17.26623	-13.40304	8.67663
17.27042	-13.42502	8.67663
17.27465	-13.42502	8.67663
17.27892	-13.42502	8.67663
17.28312	-13.44699	8.67663
17.28731	-13.46896	8.67663
17.29150	-13.46896	8.67663
17.29568	-13.49093	8.67663
17.29987	-13.49093	8.67663
17.30406	-13.49093	8.67663
17.30835	-13.51291	8.67663
17.31256	-13.53488	8.67663
17.31674	-13.53488	8.67663
17.32094	-13.53488	8.67663
17.32512	-13.53488	8.67663
17.32931	-13.55685	8.67663
17.33360	-13.55685	8.67663
17.33790	-13.57882	8.67663
17.34211	-13.57882	8.67663
17.34630	-13.57882	8.67663
17.35048	-13.60080	8.67663
17.35467	-13.60080	8.67663
17.35886	-13.62277	8.67663
17.36305	-13.62277	8.67663
17.36744	-13.62277	8.67663
17.37166	-13.62277	8.67663
17.37585	-13.64474	8.67663
17.38004	-13.64474	8.67663
17.38423	-13.66672	8.67663
17.38842	-13.66672	8.67663
17.39261	-13.66672	8.67663
17.39684	-13.66672	8.67663
17.40111	-13.71066	8.67663
17.40531	-13.68869	8.67663
17.40950	-13.71066	8.67663
17.41369	-13.71066	8.67663
17.41788	-13.71066	8.67663
17.42207	-13.71066	8.67663
17.42625	-13.73263	8.67663
17.43059	-13.73263	8.67663
17.43491	-13.75461	8.67663
17.43911	-13.73263	8.67663
17.44330	-13.75461	8.67663
17.44748	-13.75461	8.67663
17.45167	-13.75461	8.67663
17.45586	-13.77658	8.67663
17.46018	-13.77658	8.67663
17.46439	-13.77658	8.67663
17.46858	-13.79855	8.67663
17.47277	-13.79855	8.67663
17.47696	-13.79855	8.67663
17.48115	-13.79855	8.67663
17.48534	-13.82052	8.67663
17.48972	-13.79855	8.67663
17.49396	-13.82052	8.67663
17.49823	-13.82052	8.67663
17.50243	-13.82052	8.67663
17.50663	-13.82052	8.67663
17.51083	-13.84250	8.67663
17.51503	-13.84250	8.67663
17.51930	-13.84250	8.67663
17.52358	-13.84250	8.67663
17.52779	-13.84250	8.67663
17.53199	-13.84250	8.67663
17.53629	-13.84250	8.67663
17.54048	-13.84250	8.67663
17.54467	-13.86447	8.67663
17.54886	-13.86447	8.67663
17.55316	-13.86447	8.67663
17.55738	-13.86447	8.67663
17.56157	-13.86447	8.67663
17.56577	-13.86447	8.67663
17.56996	-13.86447	8.67663
17.57415	-13.86447	8.67663
17.57834	-13.86447	8.67663
17.58264	-13.88644	8.67663
17.58686	-13.86447	8.67663
17.59105	-13.88644	8.67663
17.59524	-13.86447	8.67663
17.59943	-13.86447	8.67663
17.60362	-13.86447	8.67663
17.60781	-13.88644	8.67663
17.61221	-13.86447	8.67663
17.61643	-13.88644	8.67663
17.62062	-13.88644	8.67663
17.62481	-13.88644	8.67663
17.62900	-13.86447	8.67663
17.63318	-13.86447	8.67663
17.63747	-13.88644	8.67663
17.64171	-13.88644	8.67663
17.64598	-13.86447	8.67663
17.65018	-13.88644	8.67663
17.65437	-13.86447	8.67663
17.65856	-13.88644	8.67663
17.66274	-13.88644	8.67663
17.66693	-13.86447	8.67663
17.67112	-13.86447	8.67663
17.67544	-13.86447	8.67663
17.67965	-13.86447	8.67663
17.68384	-13.86447	8.67663
17.68803	-13.86447	8.67663
17.69222	-13.86447	8.67663
17.69641	-13.86447	8.67663
17.70059	-13.86447	8.67663
17.70490	-13.84250	8.67663
17.70910	-13.86447	8.67663
17.71329	-13.86447	8.67663
17.71748	-13.84250	8.67663
17.72167	-13.84250	8.67663
17.72585	-13.82052	8.67663
17.73004	-13.82052	8.67663
17.73444	-13.84250	8.67663
17.73876	-13.84250	8.67663
17.74295	-13.82052	8.67663
17.74714	-13.82052	8.67663
17.75133	-13.82052	8.67663
17.75552	-13.79855	8.67663
17.75971	-13.82052	8.67663
17.76396	-13.79855	8.67663
17.76823	-13.79855	8.67663
17.77243	-13.79855	8.67663
17.77662	-13.79855	8.67663
17.78081	-13.79855	8.67663
17.78499	-13.77658	8.67663
17.78918	-13.77658	8.67663
17.79336	-13.77658	8.67663
17.79766	-13.77658	8.67663
17.80186	-13.75461	8.67663
17.80605	-13.77658	8.67663
17.81024	-13.75461	8.67663
17.81443	-13.75461	8.67663
17.81862	-13.75461	8.67663
17.82280	-13.75461	8.67663
17.82710	-13.73263	8.67663
17.83131	-13.75461	8.67663
17.83550	-13.73263	8.67663
17.83979	-13.73263	8.67663
17.84399	-13.73263	8.67663
17.84818	-13.71066	8.67663
17.85237	-13.73263	8.67663
17.85676	-13.71066	8.67663
17.86097	-13.71066	8.67663
17.86516	-13.71066	8.67663
17.86935	-13.71066	8.67663
17.87355	-13.68869	8.67663
17.87773	-13.68869	8.67663
17.88192	-13.68869	8.67663
17.88615	-13.68869	8.67663
17.89042	-13.68869	8.67663
17.89462	-13.68869	8.67663
17.89880	-13.66672	8.67663
17.90299	-13.68869	8.67663
17.90718	-13.66672	8.67663
17.91136	-13.66672	8.67663
17.91555	-13.64474	8.67663
17.91984	-13.64474	8.67663
17.92406	-13.64474	8.67663
17.92825	-13.64474	8.67663
17.93244	-13.62277	8.67663
17.93663	-13.64474	8.67663
17.94092	-13.62277	8.67663
17.94510	-13.62277	8.67663
17.94940	-13.62277	8.67663
17.95362	-13.62277	8.67663
17.95781	-13.60080	8.67663
17.96200	-13.60080	8.67663
17.96618	-13.57882	8.67663
17.97038	-13.57882	8.67663
17.97456	-13.57882	8.67663
17.97897	-13.57882	8.67663
17.98318	-13.57882	8.67663
17.98737	-13.55685	8.67663
17.99156	-13.55685	8.67663
17.99575	-13.55685	8.67663
17.99994	-13.53488	8.67663
18.00413	-13.53488	8.67663
18.00837	-13.53488	8.67663
18.01264	-13.53488	8.67663
18.01683	-13.51291	8.67663
18.02103	-13.51291	8.67663
18.02522	-13.51291	8.67663
18.02940	-13.51291	8.67663
18.03359	-13.49093	8.67663
18.03777	-13.49093	8.67663
18.04217	-13.46896	8.67663
18.04637	-13.49093	8.67663
18.05056	-13.46896	8.67663
18.05475	-13.46896	8.67663
18.05893	-13.46896	8.67663
18.06312	-13.44699	8.67663
18.06731	-13.44699	8.67663
18.07162	-13.42502	8.67663
18.07582	-13.42502	8.67663
18.08002	-13.42502	8.67663
18.08421	-13.42502	8.67663
18.08840	-13.40304	8.67663
18.09259	-13.40304	8.67663
18.09677	-13.38107	8.67663
18.10116	-13.38107	8.67663
18.10538	-13.38107	8.67663
18.10957	-13.38107	8.67663
18.11376	-13.35910	8.67663
18.11795	-13.35910	8.67663
18.12213	-13.33713	8.67663
18.12632	-13.33713	8.67663
18.13055	-13.31515	8.67663
18.13482	-13.31515	8.67663
18.13902	-13.31515	8.67663
18.14331	-13.31515	8.67663
18.14750	-13.29318	8.67663
18.15168	-13.29318	8.67663
18.15587	-13.29318	8.67663
18.16006	-13.27121	8.67663
18.16435	-13.27121	8.67663
18.16855	-13.24923	8.67663
18.17274	-13.24923	8.67663
18.17693	-13.24923	8.67663
18.18112	-13.22726	8.67663
18.18530	-13.22726	8.67663
18.18949	-13.20529	8.67663
18.19379	-13.20529	8.67663
18.19800	-13.18332	8.67663
18.20219	-13.18332	8.67663
18.20638	-13.16134	8.67663
18.21057	-13.16134	8.67663
18.21476	-13.16134	8.67663
18.21895	-13.13937	8.67663
18.22332	-13.13937	8.67663
18.22753	-13.11740	8.67663
18.23172	-13.11740	8.67663
18.23591	-13.11740	8.67663
18.24007	-13.11740	8.67663
18.24436	-13.09543	8.67663
18.24855	-13.09543	8.67663
18.25278	-13.07345	8.67663
18.25706	-13.07345	8.67663
18.26125	-13.05148	8.67663
18.26544	-13.05148	8.67663
18.26963	-13.05148	8.67663
18.27382	-13.02951	8.67663
18.27801	-13.02951	8.67663
18.28220	-13.00754	8.67663
18.28649	-13.00754	8.67663
18.29071	-13.00754	8.67663
18.29490	-12.98556	8.67663
18.29908	-12.98556	8.67663
18.30327	-12.96359	8.67663
18.30746	-12.96359	8.67663
18.31164	-12.94162	8.67663
18.31596	-12.91964	8.67663
18.32018	-12.91964	8.67663
18.32437	-12.94162	8.67663
18.32856	-12.91964	8.67663
18.33275	-12.91964	8.67663
18.33694	-12.89767	8.67663
18.34112	-12.89767	8.67663
18.34564	-12.87570	8.67663
18.34984	-12.87570	8.67663
18.35403	-12.87570	8.67663
18.35822	-12.85373	8.67663
18.36241	-12.85373	8.67663
18.36660	-12.85373	8.67663
18.37079	-12.83175	8.67663
18.37502	-12.83175	8.67663
18.37929	-12.83175	8.67663
18.38348	-12.80978	8.67663
18.38767	-12.80978	8.67663
18.39186	-12.78781	8.67663
18.39606	-12.78781	8.67663
18.40025	-12.76584	8.67663
18.40443	-12.76584	8.67663
18.40873	-12.76584	8.67663
18.41293	-12.76584	8.67663
18.41712	-12.74386	8.67663
18.42131	-12.74386	8.67663
18.42550	-12.72189	8.67663
18.42969	-12.74386	8.67663
18.43391	-12.72189	8.67663
18.43822	-12.69992	8.67663
18.44244	-12.69992	8.67663
18.44673	-12.69992	8.67663
18.45092	-12.69992	8.67663
18.45511	-12.67795	8.67663
18.45930	-12.67795	8.67663
18.46349	-12.67795	8.67663
18.46787	-12.65597	8.67663
18.47210	-12.65597	8.67663
18.47629	-12.65597	8.67663
18.48048	-12.63400	8.67663
18.48467	-12.61203	8.67663
18.48886	-12.63400	8.67663
18.49305	-12.61203	8.67663
18.49731	-12.61203	8.67663
18.50158	-12.61203	8.67663
18.50580	-12.59006	8.67663
18.51000	-12.59006	8.67663
18.51419	-12.56808	8.67663
18.51838	-12.56808	8.67663
18.52257	-12.59006	8.67663
18.52676	-12.54611	8.67663
18.53107	-12.54611	8.67663
18.53527	-12.54611	8.67663
18.53947	-12.52414	8.67663
18.54366	-12.52414	8.67663
18.54797	-12.52414	8.67663
18.55216	-12.52414	8.67663
18.55635	-12.52414	8.67663
18.56066	-12.52414	8.67663
18.56486	-12.50216	8.67663
18.56905	-12.50216	8.67663
18.57325	-12.48019	8.67663
18.57745	-12.48019	8.67663
18.58164	-12.48019	8.67663
18.58583	-12.48019	8.67663
18.59027	-12.45822	8.67663
18.59449	-12.45822	8.67663
18.59868	-12.45822	8.67663
18.60286	-12.43625	8.67663
18.60705	-12.43625	8.67663
18.61124	-12.43625	8.67663
18.61543	-12.41427	8.67663
18.61967	-12.43625	8.67663
18.62395	-12.41427	8.67663
18.62815	-12.41427	8.67663
18.63234	-12.41427	8.67663
18.63653	-12.39230	8.67663
18.64073	-12.41427	8.67663
18.64491	-12.39230	8.67663
18.64921	-12.39230	8.67663
18.65353	-12.39230	8.67663
18.65773	-12.39230	8.67663
18.66191	-12.39230	8.67663
18.66610	-12.37033	8.67663
18.67029	-12.37033	8.67663
18.67448	-12.34836	8.67663
18.67866	-12.34836	8.67663
18.68296	-12.34836	8.67663
18.68718	-12.34836	8.67663
18.69137	-12.34836	8.67663
18.69556	-12.34836	8.67663
18.69974	-12.34836	8.67663
18.70394	-12.32638	8.67663
18.70813	-12.32638	8.67663
18.71253	-12.32638	8.67663
18.71675	-12.34836	8.67663
18.72094	-12.32638	8.67663
18.72513	-12.32638	8.67663
18.72931	-12.32638	8.67663
18.73350	-12.30441	8.67663
18.73769	-12.30441	8.67663
18.74193	-12.30441	8.67663
18.74620	-12.30441	8.67663
18.75052	-12.30441	8.67663
18.75472	-12.30441	8.67663
18.75890	-12.30441	8.67663
18.76309	-12.30441	8.67663
18.76728	-12.30441	8.67663
18.77146	-12.28244	8.67663
18.77576	-12.30441	8.67663
18.77998	-12.28244	8.67663
18.78417	-12.28244	8.67663
18.78836	-12.28244	8.67663
18.79255	-12.28244	8.67663
18.79673	-12.28244	8.67663
18.80092	-12.28244	8.67663
18.80523	-12.26047	8.67663
18.80943	-12.28244	8.67663
18.81362	-12.26047	8.67663
18.81781	-12.26047	8.67663
18.82200	-12.26047	8.67663
18.82618	-12.26047	8.67663
18.83037	-12.26047	8.67663
18.83478	-12.26047	8.67663
18.83899	-12.26047	8.67663
18.84318	-12.26047	8.67663
18.84737	-12.26047	8.67663
18.85166	-12.26047	8.67663
18.85585	-12.26047	8.67663
18.86004	-12.26047	8.67663
18.86428	-12.26047	8.67663
18.86854	-12.26047	8.67663
18.87275	-12.26047	8.67663
18.87694	-12.23849	8.67663
18.88113	-12.26047	8.67663
18.88532	-12.26047	8.67663
18.88950	-12.23849	8.67663
18.89369	-12.23849	8.67663
18.89799	-12.23849	8.67663
18.90219	-12.23849	8.67663
18.90638	-12.26047	8.67663
18.91057	-12.23849	8.67663
18.91476	-12.26047	8.67663
18.91895	-12.23849	8.67663
18.92314	-12.23849	8.67663
18.92745	-12.23849	8.67663
18.93165	-12.26047	8.67663
18.93585	-12.23849	8.67663
18.94004	-12.26047	8.67663
18.94423	-12.26047	8.67663
18.94842	-12.26047	8.67663
18.95271	-12.23849	8.67663
18.95711	-12.26047	8.67663
18.96132	-12.26047	8.67663
18.96551	-12.26047	8.67663
18.96969	-12.26047	8.67663
18.97388	-12.26047	8.67663
18.97808	-12.26047	8.67663
18.98226	-12.26047	8.67663
18.98653	-12.26047	8.67663
18.99081	-12.26047	8.67663
18.99501	-12.26047	8.67663
18.99919	-12.28244	8.67663
19.00339	-12.28244	8.67663
19.00758	-12.26047	8.67663
19.01176	-12.28244	8.67663
19.01596	-12.28244	8.67663
19.02025	-12.28244	8.67663
19.02445	-12.28244	8.67663
19.02864	-12.28244	8.67663
19.03283	-12.28244	8.67663
19.03702	-12.30441	8.67663
19.04120	-12.28244	8.67663
19.04539	-12.30441	8.67663
19.04969	-12.30441	8.67663
19.05404	-12.30441	8.67663
19.05824	-12.30441	8.67663
19.06243	-12.30441	8.67663
19.06662	-12.30441	8.67663
19.07081	-12.32638	8.67663
19.07500	-12.32638	8.67663
19.07937	-12.32638	8.67663
19.08360	-12.32638	8.67663
19.08779	-12.32638	8.67663
19.09200	-12.32638	8.67663
19.09618	-12.34836	8.67663
19.10037	-12.34836	8.67663
19.10456	-12.37033	8.67663
19.10879	-12.37033	8.67663
19.11306	-12.34836	8.67663
19.11726	-12.37033	8.67663
19.12145	-12.37033	8.67663
19.12563	-12.37033	8.67663
19.12982	-12.39230	8.67663
19.13400	-12.39230	8.67663
19.13819	-12.39230	8.67663
19.14249	-12.41427	8.67663
19.14669	-12.39230	8.67663
19.15088	-12.41427	8.67663
19.15517	-12.41427	8.67663
19.15936	-12.41427	8.67663
19.16355	-12.41427	8.67663
19.16774	-12.43625	8.67663
19.17207	-12.43625	8.67663
19.17628	-12.43625	8.67663
19.18048	-12.45822	8.67663
19.18467	-12.45822	8.67663
19.18886	-12.45822	8.67663
19.19305	-12.48019	8.67663
19.19723	-12.48019	8.67663
19.20162	-12.48019	8.67663
19.20583	-12.48019	8.67663
19.21003	-12.50216	8.67663
19.21422	-12.50216	8.67663
19.21840	-12.50216	8.67663
19.22259	-12.50216	8.67663
19.22677	-12.52414	8.67663
19.23101	-12.52414	8.67663
19.23530	-12.52414	8.67663
19.23951	-12.54611	8.67663
19.24370	-12.54611	8.67663
19.24789	-12.54611	8.67663
19.25207	-12.56808	8.67663
19.25636	-12.54611	8.67663
19.26055	-12.56808	8.67663
19.26485	-12.56808	8.67663
19.26905	-12.56808	8.67663
19.27324	-12.59006	8.67663
19.27743	-12.59006	8.67663
19.28163	-12.59006	8.67663
19.28582	-12.61203	8.67663
19.29000	-12.61203	8.67663
19.29431	-12.61203	8.67663
19.29852	-12.61203	8.67663
19.30271	-12.63400	8.67663
19.30690	-12.63400	8.67663
19.31108	-12.63400	8.67663
19.31537	-12.65597	8.67663
19.31960	-12.65597	8.67663
19.32398	-12.65597	8.67663
19.32823	-12.65597	8.67663
19.33243	-12.67795	8.67663
19.33663	-12.67795	8.67663
19.34083	-12.67795	8.67663
19.34502	-12.69992	8.67663
19.34921	-12.69992	8.67663
19.35348	-12.67795	8.67663
19.35786	-12.69992	8.67663
19.36206	-12.69992	8.67663
19.36624	-12.72189	8.67663
19.37043	-12.72189	8.67663
19.37462	-12.72189	8.67663
19.37881	-12.72189	8.67663
19.38301	-12.72189	8.67663
19.38731	-12.74386	8.67663
19.39152	-12.74386	8.67663
19.39571	-12.74386	8.67663
19.39990	-12.74386	8.67663
19.40406	-12.76584	8.67663
19.40825	-12.76584	8.67663
19.41244	-12.76584	8.67663
19.41674	-12.78781	8.67663
19.42095	-12.76584	8.67663
19.42515	-12.76584	8.67663
19.42934	-12.78781	8.67663
19.43355	-12.78781	8.67663
19.43775	-12.78781	8.67663
19.44195	-12.80978	8.67663
19.44632	-12.80978	8.67663
19.45055	-12.83175	8.67663
19.45475	-12.83175	8.67663
19.45904	-12.80978	8.67663
19.46323	-12.80978	8.67663
19.46743	-12.85373	8.67663
19.47161	-12.83175	8.67663
19.47586	-12.83175	8.67663
19.48014	-12.85373	8.67663
19.48434	-12.85373	8.67663
19.48853	-12.85373	8.67663
19.49274	-12.85373	8.67663
19.49694	-12.87570	8.67663
19.50113	-12.87570	8.67663
19.50533	-12.87570	8.67663
19.50963	-12.87570	8.67663
19.51384	-12.87570	8.67663
19.51803	-12.87570	8.67663
19.52222	-12.89767	8.67663
19.52641	-12.87570	8.67663
19.53060	-12.87570	8.67663
19.53479	-12.89767	8.67663
19.53911	-12.89767	8.67663
19.54332	-12.89767	8.67663
19.54751	-12.91964	8.67663
19.55170	-12.89767	8.67663
19.55590	-12.91964	8.67663
19.56020	-12.91964	8.67663
19.56439	-12.91964	8.67663
19.56875	-12.91964	8.67663
19.57298	-12.94162	8.67663
19.57717	-12.94162	8.67663
19.58136	-12.94162	8.67663
19.58555	-12.94162	8.67663
19.58974	-12.94162	8.67663
19.59393	-12.94162	8.67663
19.59817	-12.96359	8.67663
19.60244	-12.96359	8.67663
19.60664	-12.96359	8.67663
19.61083	-12.96359	8.67663
19.61502	-12.96359	8.67663
19.61921	-12.96359	8.67663
19.62339	-12.96359	8.67663
19.62758	-12.98556	8.67663
19.63187	-12.98556	8.67663
19.63609	-12.98556	8.67663
19.64029	-12.98556	8.67663
19.64448	-12.98556	8.67663
19.64866	-12.98556	8.67663
19.65285	-12.98556	8.67663
19.65704	-12.98556	8.67663
19.66145	-12.98556	8.67663
19.66566	-12.98556	8.67663
19.66985	-12.98556	8.67663
19.67404	-12.98556	8.67663
19.67823	-13.00754	8.67663
19.68242	-12.98556	8.67663
19.68661	-12.98556	8.67663
19.69104	-12.98556	8.67663
19.69525	-13.00754	8.67663
19.69944	-12.98556	8.67663
19.70363	-13.00754	8.67663
19.70781	-12.98556	8.67663
19.71201	-13.00754	8.67663
19.71620	-13.00754	8.67663
19.72043	-13.00754	8.67663
19.72471	-12.98556	8.67663
19.72890	-12.98556	8.67663
19.73309	-12.98556	8.67663
19.73728	-13.00754	8.67663
19.74147	-13.00754	8.67663
19.74566	-12.98556	8.67663
19.74984	-12.98556	8.67663
19.75415	-12.98556	8.67663
19.75836	-12.98556	8.67663
19.76265	-12.98556	8.67663
19.76684	-12.98556	8.67663
19.77103	-12.98556	8.67663
19.77522	-12.98556	8.67663
19.77940	-12.98556	8.67663
19.78370	-12.98556	8.67663
19.78792	-12.98556	8.67663
19.79211	-12.96359	8.67663
19.79630	-12.96359	8.67663
19.80049	-12.98556	8.67663
19.80468	-12.96359	8.67663
19.80886	-12.96359	8.67663
19.81323	-12.96359	8.67663
19.81746	-12.94162	8.67663
19.82165	-12.94162	8.67663
19.82586	-12.96359	8.67663
19.83005	-12.94162	8.67663
19.83424	-12.94162	8.67663
19.83843	-12.94162	8.67663
19.84268	-12.94162	8.67663
19.84695	-12.94162	8.67663
19.85114	-12.94162	8.67663
19.85534	-12.91964	8.67663
19.85953	-12.91964	8.67663
19.86382	-12.91964	8.67663
19.86802	-12.91964	8.67663
19.87221	-12.91964	8.67663
19.87651	-12.89767	8.67663
19.88071	-12.89767	8.67663
19.88490	-12.89767	8.67663
19.88909	-12.87570	8.67663
19.89328	-12.89767	8.67663
19.89747	-12.89767	8.67663
19.90166	-12.87570	8.67663
19.90596	-12.87570	8.67663
19.91017	-12.87570	8.67663
19.91436	-12.87570	8.67663
19.91855	-12.87570	8.67663
19.92274	-12.85373	8.67663
19.92693	-12.85373	8.67663
19.93111	-12.85373	8.67663
19.93546	-12.83175	8.67663
19.93969	-12.83175	8.67663
19.94388	-12.83175	8.67663
19.94806	-12.83175	8.67663
19.95225	-12.83175	8.67663
19.95644	-12.80978	8.67663
19.96063	-12.80978	8.67663
19.96499	-12.80978	8.67663
19.96926	-12.78781	8.67663
19.97346	-12.78781	8.67663
19.97765	-12.78781	8.67663
19.98184	-12.78781	8.67663
19.98603	-12.78781	8.67663
19.99022	-12.76584	8.67663
19.99440	-12.76584	8.67663
19.99870	-12.76584	8.67663
20.00292	-12.76584	8.67663
20.00711	-12.74386	8.67663
20.01130	-12.74386	8.67663
20.01549	-12.74386	8.67663
20.01968	-12.72189	8.67663
20.02387	-12.74386	8.67663
20.02818	-12.72189	8.67663
20.03239	-12.72189	8.67663
20.03658	-12.72189	8.67663
20.04077	-12.69992	8.67663
20.04496	-12.69992	8.67663
20.04915	-12.69992	8.67663
20.05334	-12.69992	8.67663
20.05773	-12.67795	8.67663
20.06195	-12.67795	8.67663
20.06624	-12.67795	8.67663
20.07043	-12.65597	8.67663
20.07462	-12.67795	8.67663
20.07881	-12.65597	8.67663
20.08299	-12.65597	8.67663
20.08723	-12.65597	8.67663
20.09150	-12.63400	8.67663
20.09570	-12.63400	8.67663
20.09989	-12.63400	8.67663
20.10407	-12.61203	8.67663
20.10826	-12.61203	8.67663
20.11245	-12.61203	8.67663
20.11663	-12.61203	8.67663
20.12093	-12.61203	8.67663
20.12513	-12.59006	8.67663
20.12932	-12.59006	8.67663
20.13351	-12.59006	8.67663
20.13770	-12.59006	8.67663
20.14188	-12.56808	8.67663
20.14607	-12.56808	8.67663
20.15037	-12.54611	8.67663
20.15458	-12.56808	8.67663
20.15877	-12.56808	8.67663
20.16296	-12.54611	8.67663
20.16725	-12.54611	8.67663
20.17144	-12.54611	8.67663
20.17563	-12.52414	8.67663
20.18006	-12.52414	8.67663
20.18427	-12.50216	8.67663
20.18847	-12.50216	8.67663
20.19266	-12.50216	8.67663
20.19684	-12.50216	8.67663
20.20103	-12.50216	8.67663
20.20527	-12.50216	8.67663
20.20961	-12.48019	8.67663
20.21395	-12.48019	8.67663
20.21817	-12.48019	8.67663
20.22237	-12.48019	8.67663
20.22656	-12.48019	8.67663
20.23075	-12.45822	8.67663
20.23494	-12.45822	8.67663
20.23913	-12.45822	8.67663
20.24343	-12.45822	8.67663
20.24764	-12.43625	8.67663
20.25183	-12.45822	8.67663
20.25603	-12.43625	8.67663
20.26023	-12.43625	8.67663
20.26441	-12.43625	8.67663
20.26871	-12.41427	8.67663
20.27301	-12.41427	8.67663
20.27722	-12.43625	8.67663
20.28141	-12.41427	8.67663
20.28560	-12.41427	8.67663
20.28980	-12.41427	8.67663
20.29399	-12.41427	8.67663
20.29818	-12.39230	8.67663
20.30257	-12.39230	8.67663
20.30680	-12.39230	8.67663
20.31099	-12.39230	8.67663
20.31518	-12.39230	8.67663
20.31937	-12.39230	8.67663
20.32356	-12.39230	8.67663
20.32775	-12.39230	8.67663
20.33201	-12.37033	8.67663
20.33629	-12.39230	8.67663
20.34049	-12.37033	8.67663
20.34468	-12.37033	8.67663
20.34887	-12.37033	8.67663
20.35305	-12.37033	8.67663
20.35724	-12.37033	8.67663
20.36143	-12.37033	8.67663
20.36572	-12.34836	8.67663
20.37003	-12.34836	8.67663
20.37422	-12.34836	8.67663
20.37841	-12.34836	8.67663
20.38259	-12.37033	8.67663
20.38678	-12.34836	8.67663
20.39098	-12.34836	8.67663
20.39528	-12.34836	8.67663
20.39948	-12.34836	8.67663
20.40368	-12.34836	8.67663
20.40786	-12.37033	8.67663
20.41206	-12.34836	8.67663
20.41625	-12.34836	8.67663
20.42043	-12.34836	8.67663
20.42482	-12.34836	8.67663
20.42904	-12.34836	8.67663
20.43325	-12.34836	8.67663
20.43746	-12.34836	8.67663
20.44165	-12.34836	8.67663
20.44584	-12.34836	8.67663
20.45003	-12.34836	8.67663
20.45428	-12.34836	8.67663
20.45854	-12.34836	8.67663
20.46274	-12.34836	8.67663
20.46693	-12.37033	8.67663
20.47122	-12.34836	8.67663
20.47541	-12.34836	8.67663
20.47960	-12.34836	8.67663
20.48379	-12.34836	8.67663
20.48810	-12.34836	8.67663
20.49231	-12.37033	8.67663
20.49650	-12.34836	8.67663
20.50068	-12.37033	8.67663
20.50488	-12.37033	8.67663
20.50908	-12.37033	8.67663
20.51327	-12.37033	8.67663
20.51757	-12.37033	8.67663
20.52270	-12.37033	8.67663
20.52689	-12.39230	8.67663
20.53110	-12.39230	8.67663
20.53529	-12.41427	8.67663
20.53949	-12.41427	8.67663
20.54369	-12.39230	8.67663
20.54801	-12.39230	8.67663
20.55229	-12.39230	8.67663
20.55649	-12.41427	8.67663
20.56069	-12.41427	8.67663
20.56489	-12.41427	8.67663
20.56909	-12.41427	8.67663
20.57338	-12.41427	8.67663
20.57777	-12.41427	8.67663
20.58200	-12.43625	8.67663
20.58621	-12.43625	8.67663
20.59040	-12.43625	8.67663
20.59460	-12.43625	8.67663
20.59877	-12.45822	8.67663
20.60293	-12.45822	8.67663
20.60716	-12.45822	8.67663
20.61141	-12.45822	8.67663
20.61558	-12.45822	8.67663
20.61975	-12.45822	8.67663
20.62392	-12.48019	8.67663
20.62809	-12.48019	8.67663
20.63225	-12.50216	8.67663
20.63642	-12.50216	8.67663
20.64069	-12.50216	8.67663
20.64487	-12.50216	8.67663
20.64903	-12.50216	8.67663
20.65320	-12.52414	8.67663
20.65737	-12.52414	8.67663
20.66153	-12.52414	8.67663
20.66570	-12.52414	8.67663
20.66998	-12.54611	8.67663
20.67426	-12.54611	8.67663
20.67843	-12.56808	8.67663
20.68259	-12.56808	8.67663
20.68676	-12.56808	8.67663
20.69092	-12.59006	8.67663
20.69511	-12.59006	8.67663
20.69951	-12.59006	8.67663
20.70373	-12.59006	8.67663
20.70792	-12.61203	8.67663
20.71207	-12.63400	8.67663
20.71625	-12.63400	8.67663
20.72044	-12.63400	8.67663
20.72463	-12.63400	8.67663
20.72888	-12.65597	8.67663
20.73314	-12.65597	8.67663
20.73734	-12.65597	8.67663
20.74153	-12.67795	8.67663
20.74572	-12.67795	8.67663
20.74991	-12.67795	8.67663
20.75409	-12.69992	8.67663
20.75828	-12.69992	8.67663
20.76257	-12.69992	8.67663
20.76677	-12.72189	8.67663
20.77096	-12.72189	8.67663
20.77526	-12.72189	8.67663
20.77945	-12.74386	8.67663
20.78364	-12.74386	8.67663
20.78782	-12.76584	8.67663
20.79214	-12.76584	8.67663
20.79634	-12.78781	8.67663
20.80053	-12.78781	8.67663
20.80472	-12.78781	8.67663
20.80891	-12.78781	8.67663
20.81310	-12.80978	8.67663
20.81729	-12.80978	8.67663
20.82168	-12.83175	8.67663
20.82589	-12.83175	8.67663
20.83008	-12.83175	8.67663
20.83427	-12.85373	8.67663
20.83846	-12.85373	8.67663
20.84264	-12.87570	8.67663
20.84683	-12.87570	8.67663
20.85107	-12.87570	8.67663
20.85535	-12.89767	8.67663
20.85955	-12.89767	8.67663
20.86374	-12.91964	8.67663
20.86794	-12.91964	8.67663
20.87213	-12.94162	8.67663
20.87642	-12.94162	8.67663
20.88060	-12.94162	8.67663
20.88490	-12.96359	8.67663
20.88911	-12.96359	8.67663
20.89330	-12.98556	8.67663
20.89749	-13.00754	8.67663
20.90170	-13.00754	8.67663
20.90588	-13.00754	8.67663
20.91007	-13.02951	8.67663
20.91437	-13.02951	8.67663
20.91858	-13.05148	8.67663
20.92277	-13.05148	8.67663
20.92695	-13.05148	8.67663
20.93114	-13.07345	8.67663
20.93533	-13.07345	8.67663
20.93951	-13.07345	8.67663
20.94394	-13.09543	8.67663
20.94815	-13.09543	8.67663
20.95234	-13.11740	8.67663
20.95653	-13.11740	8.67663
20.96072	-13.13937	8.67663
20.96491	-13.13937	8.67663
20.96910	-13.13937	8.67663
20.97334	-13.16134	8.67663
20.97771	-13.18332	8.67663
20.98190	-13.18332	8.67663
20.98609	-13.18332	8.67663
20.99028	-13.20529	8.67663
20.99447	-13.20529	8.67663
20.99866	-13.20529	8.67663
21.00285	-13.22726	8.67663
21.00714	-13.22726	8.67663
21.01135	-13.22726	8.67663
21.01553	-13.24923	8.67663
21.01972	-13.24923	8.67663
21.02391	-13.27121	8.67663
21.02807	-13.27121	8.67663
21.03225	-13.29318	8.67663
21.03654	-13.29318	8.67663
21.04075	-13.29318	8.67663
21.04494	-13.31515	8.67663
21.04913	-13.31515	8.67663
21.05332	-13.31515	8.67663
21.05751	-13.33713	8.67663
21.06169	-13.33713	8.67663
21.06609	-13.35910	8.67663
21.07030	-13.35910	8.67663
21.07449	-13.35910	8.67663
21.07878	-13.38107	8.67663
21.08297	-13.38107	8.67663
21.08716	-13.40304	8.67663
21.09134	-13.40304	8.67663
21.09558	-13.40304	8.67663
21.09996	-13.42502	8.67663
21.10418	-13.42502	8.67663
21.10837	-13.42502	8.67663
21.11256	-13.42502	8.67663
21.11675	-13.44699	8.67663
21.12093	-13.44699	8.67663
21.12512	-13.46896	8.67663
21.12942	-13.46896	8.67663
21.13363	-13.46896	8.67663
21.13782	-13.46896	8.67663
21.14201	-13.46896	8.67663
21.14619	-13.49093	8.67663
21.15038	-13.49093	8.67663
21.15457	-13.49093	8.67663
21.15886	-13.51291	8.67663
21.16307	-13.51291	8.67663
21.16726	-13.51291	8.67663
21.17145	-13.53488	8.67663
21.17564	-13.51291	8.67663
21.17994	-13.53488	8.67663
21.18413	-13.55685	8.67663
21.18851	-13.55685	8.67663
21.19273	-13.55685	8.67663
21.19692	-13.57882	8.67663
21.20111	-13.55685	8.67663
21.20530	-13.55685	8.67663
21.20949	-13.57882	8.67663
21.21370	-13.57882	8.67663
21.21797	-13.57882	8.67663
21.22226	-13.57882	8.67663
21.22646	-13.57882	8.67663
21.23064	-13.60080	8.67663
21.23483	-13.60080	8.67663
21.23903	-13.60080	8.67663
21.24321	-13.60080	8.67663
21.24740	-13.60080	8.67663
21.25171	-13.60080	8.67663
21.25594	-13.62277	8.67663
21.26014	-13.62277	8.67663
21.26433	-13.62277	8.67663
21.26852	-13.62277	8.67663
21.27270	-13.62277	8.67663
21.27689	-13.64474	8.67663
21.28130	-13.64474	8.67663
21.28551	-13.64474	8.67663
21.28970	-13.64474	8.67663
21.29389	-13.64474	8.67663
21.29808	-13.66672	8.67663
21.30228	-13.66672	8.67663
21.30646	-13.66672	8.67663
21.31085	-13.66672	8.67663
21.31507	-13.66672	8.67663
21.31927	-13.66672	8.67663
21.32346	-13.66672	8.67663
21.32765	-13.66672	8.67663
21.33184	-13.66672	8.67663
21.33603	-13.66672	8.67663
21.34027	-13.68869	8.67663
21.34455	-13.68869	8.67663
21.34874	-13.68869	8.67663
21.35294	-13.68869	8.67663
21.35713	-13.68869	8.67663
21.36132	-13.68869	8.67663
21.36551	-13.68869	8.67663
21.36969	-13.68869	8.67663
21.37399	-13.68869	8.67663
21.37819	-13.68869	8.67663
21.38248	-13.68869	8.67663
21.38667	-13.68869	8.67663
21.39086	-13.68869	8.67663
21.39505	-13.68869	8.67663
21.39924	-13.68869	8.67663
21.40354	-13.68869	8.67663
21.40775	-13.68869	8.67663
21.41195	-13.71066	8.67663
21.41613	-13.68869	8.67663
21.42032	-13.68869	8.67663
21.42451	-13.68869	8.67663
21.42869	-13.68869	8.67663
21.43312	-13.68869	8.67663
21.43735	-13.68869	8.67663
21.44154	-13.68869	8.67663
21.44573	-13.68869	8.67663
21.44991	-13.68869	8.67663
21.45411	-13.68869	8.67663
21.45829	-13.68869	8.67663
21.46254	-13.68869	8.67663
21.46681	-13.68869	8.67663
21.47101	-13.68869	8.67663
21.47520	-13.66672	8.67663
21.47939	-13.68869	8.67663
21.48368	-13.68869	8.67663
21.48787	-13.66672	8.67663
21.49206	-13.66672	8.67663
21.49636	-13.66672	8.67663
21.50056	-13.64474	8.67663
21.50475	-13.66672	8.67663
21.50895	-13.64474	8.67663
21.51314	-13.64474	8.67663
21.51733	-13.64474	8.67663
21.52152	-13.64474	8.67663
21.52582	-13.64474	8.67663
21.53003	-13.64474	8.67663
21.53422	-13.64474	8.67663
21.53842	-13.62277	8.67663
21.54261	-13.64474	8.67663
21.54679	-13.62277	8.67663
21.55098	-13.62277	8.67663
21.55536	-13.62277	8.67663
21.55958	-13.60080	8.67663
21.56377	-13.60080	8.67663
21.56797	-13.60080	8.67663
21.57216	-13.60080	8.67663
21.57635	-13.60080	8.67663
21.58054	-13.57882	8.67663
21.58489	-13.57882	8.67663
21.58916	-13.57882	8.67663
21.59336	-13.57882	8.67663
21.59755	-13.55685	8.67663
21.60174	-13.57882	8.67663
21.60593	-13.55685	8.67663
21.61011	-13.55685	8.67663
21.61430	-13.55685	8.67663
21.61860	-13.55685	8.67663
21.62282	-13.53488	8.67663
21.62700	-13.53488	8.67663
21.63119	-13.51291	8.67663
21.63538	-13.51291	8.67663
21.63957	-13.51291	8.67663
21.64375	-13.51291	8.67663
21.64807	-13.51291	8.67663
21.65228	-13.51291	8.67663
21.65647	-13.49093	8.67663
21.66066	-13.51291	8.67663
21.66485	-13.49093	8.67663
21.66904	-13.49093	8.67663
21.67323	-13.49093	8.67663
21.67762	-13.46896	8.67663
21.68184	-13.46896	8.67663
21.68614	-13.46896	8.67663
21.69032	-13.44699	8.67663
21.69451	-13.44699	8.67663
21.69869	-13.44699	8.67663
21.70289	-13.42502	8.67663
21.70713	-13.44699	8.67663
21.71140	-13.42502	8.67663
21.71559	-13.40304	8.67663
21.71978	-13.42502	8.67663
21.72398	-13.42502	8.67663
21.72816	-13.40304	8.67663
21.73235	-13.40304	8.67663
21.73654	-13.38107	8.67663
21.74083	-13.38107	8.67663
21.74503	-13.38107	8.67663
21.74922	-13.38107	8.67663
21.75341	-13.35910	8.67663
21.75760	-13.38107	8.67663
21.76178	-13.35910	8.67663
21.76597	-13.33713	8.67663
21.77027	-13.33713	8.67663
21.77447	-13.33713	8.67663
21.77866	-13.33713	8.67663
21.78285	-13.33713	8.67663
21.78714	-13.31515	8.67663
21.79133	-13.31515	8.67663
21.79551	-13.29318	8.67663
21.79991	-13.29318	8.67663
21.80409	-13.29318	8.67663
21.80828	-13.29318	8.67663
21.81247	-13.27121	8.67663
21.81666	-13.27121	8.67663
21.82084	-13.27121	8.67663
21.82503	-13.27121	8.67663
21.82926	-13.24923	8.67663
21.83353	-13.24923	8.67663
21.83773	-13.24923	8.67663
21.84192	-13.24923	8.67663
21.84611	-13.22726	8.67663
21.85029	-13.22726	8.67663
21.85448	-13.22726	8.67663
21.85866	-13.20529	8.67663
21.86296	-13.20529	8.67663
21.86716	-13.20529	8.67663
21.87136	-13.18332	8.67663
21.87554	-13.18332	8.67663
21.87973	-13.18332	8.67663
21.88392	-13.16134	8.67663
21.88817	-13.16134	8.67663
21.89247	-13.16134	8.67663
21.89668	-13.13937	8.67663
21.90087	-13.16134	8.67663
21.90506	-13.11740	8.67663
21.90925	-13.11740	8.67663
21.91344	-13.13937	8.67663
21.91762	-13.11740	8.67663
21.92203	-13.11740	8.67663
21.92624	-13.11740	8.67663
21.93043	-13.11740	8.67663
21.93462	-13.09543	8.67663
21.93882	-13.09543	8.67663
21.94301	-13.07345	8.67663
21.94720	-13.07345	8.67663
21.95144	-13.07345	8.67663
21.95573	-13.07345	8.67663
21.95994	-13.05148	8.67663
21.96414	-13.05148	8.67663
21.96834	-13.02951	8.67663
21.97254	-13.05148	8.67663
21.97675	-13.02951	8.67663
21.98094	-13.02951	8.67663
21.98524	-13.02951	8.67663
21.98956	-13.00754	8.67663
21.99375	-13.00754	8.67663
21.99793	-13.00754	8.67663
22.00212	-12.98556	8.67663
22.00632	-12.98556	8.67663
22.01051	-12.98556	8.67663
22.01481	-12.98556	8.67663
22.01903	-12.98556	8.67663
22.02323	-12.98556	8.67663
22.02741	-12.96359	8.67663
22.03160	-12.96359	8.67663
22.03579	-12.96359	8.67663
22.03998	-12.94162	8.67663
22.04437	-12.96359	8.67663
22.04858	-12.94162	8.67663
22.05278	-12.94162	8.67663
22.05696	-12.94162	8.67663
22.06115	-12.91964	8.67663
22.06534	-12.91964	8.67663
22.06952	-12.91964	8.67663
22.07376	-12.91964	8.67663
22.07803	-12.89767	8.67663
22.08222	-12.89767	8.67663
22.08642	-12.89767	8.67663
22.09072	-12.89767	8.67663
22.09490	-12.89767	8.67663
22.09909	-12.87570	8.67663
22.10328	-12.87570	8.67663
22.10758	-12.87570	8.67663
22.11179	-12.87570	8.67663
22.11599	-12.87570	8.67663
22.12018	-12.87570	8.67663
22.12438	-12.85373	8.67663
22.12856	-12.87570	8.67663
22.13275	-12.85373	8.67663
22.13705	-12.85373	8.67663
22.14126	-12.85373	8.67663
22.14545	-12.85373	8.67663
22.14964	-12.83175	8.67663
22.15383	-12.83175	8.67663
22.15802	-12.83175	8.67663
22.16220	-12.83175	8.67663
22.16661	-12.80978	8.67663
22.17083	-12.80978	8.67663
22.17502	-12.80978	8.67663
22.17921	-12.80978	8.67663
22.18339	-12.78781	8.67663
22.18758	-12.80978	8.67663
22.19187	-12.78781	8.67663
22.19611	-12.78781	8.67663
22.20039	-12.78781	8.67663
22.20459	-12.78781	8.67663
22.20878	-12.76584	8.67663
22.21299	-12.78781	8.67663
22.21719	-12.78781	8.67663
22.22138	-12.76584	8.67663
22.22557	-12.76584	8.67663
22.22986	-12.76584	8.67663
22.23407	-12.76584	8.67663
22.23826	-12.76584	8.67663
22.24246	-12.74386	8.67663
22.24665	-12.74386	8.67663
22.25084	-12.74386	8.67663
22.25502	-12.74386	8.67663
22.25932	-12.74386	8.67663
22.26353	-12.72189	8.67663
22.26772	-12.72189	8.67663
22.27192	-12.74386	8.67663
22.27607	-12.74386	8.67663
22.28025	-12.72189	8.67663
22.28444	-12.72189	8.67663
22.28886	-12.72189	8.67663
22.29317	-12.72189	8.67663
22.29736	-12.69992	8.67663
22.30155	-12.69992	8.67663
22.30574	-12.69992	8.67663
22.30993	-12.69992	8.67663
22.31411	-12.67795	8.67663
22.31835	-12.69992	8.67663
22.32262	-12.67795	8.67663
22.32682	-12.67795	8.67663
22.33101	-12.67795	8.67663
22.33520	-12.67795	8.67663
22.33939	-12.65597	8.67663
22.34358	-12.67795	8.67663
22.34776	-12.65597	8.67663
22.35208	-12.65597	8.67663
22.35629	-12.65597	8.67663
22.36048	-12.65597	8.67663
22.36467	-12.63400	8.67663
22.36886	-12.65597	8.67663
22.37305	-12.63400	8.67663
22.37723	-12.63400	8.67663
22.38154	-12.63400	8.67663
22.38575	-12.63400	8.67663
22.38994	-12.63400	8.67663
22.39423	-12.63400	8.67663
22.39842	-12.61203	8.67663
22.40260	-12.61203	8.67663
22.40679	-12.61203	8.67663
22.41121	-12.61203	8.67663
22.41542	-12.61203	8.67663
22.41961	-12.61203	8.67663
22.42380	-12.59006	8.67663
22.42800	-12.59006	8.67663
22.43221	-12.59006	8.67663
22.43641	-12.56808	8.67663
22.44067	-12.59006	8.67663
22.44494	-12.56808	8.67663
22.44914	-12.56808	8.67663
22.45333	-12.56808	8.67663
22.45751	-12.56808	8.67663
22.46170	-12.54611	8.67663
22.46589	-12.56808	8.67663
22.47008	-12.54611	8.67663
22.47438	-12.54611	8.67663
22.47858	-12.54611	8.67663
22.48277	-12.54611	8.67663
22.48696	-12.54611	8.67663
22.49115	-12.54611	8.67663
22.49545	-12.52414	8.67663
22.49963	-12.54611	8.67663
22.50396	-12.50216	8.67663
22.50819	-12.52414	8.67663
22.51239	-12.52414	8.67663
22.51658	-12.50216	8.67663
22.52077	-12.50216	8.67663
22.52497	-12.52414	8.67663
22.52916	-12.48019	8.67663
22.53350	-12.50216	8.67663
22.53773	-12.50216	8.67663
22.54192	-12.48019	8.67663
22.54611	-12.48019	8.67663
22.55029	-12.48019	8.67663
22.55448	-12.48019	8.67663
22.55867	-12.48019	8.67663
22.56291	-12.48019	8.67663
22.56718	-12.45822	8.67663
22.57138	-12.45822	8.67663
22.57557	-12.45822	8.67663
22.57976	-12.45822	8.67663
22.58395	-12.45822	8.67663
22.58814	-12.43625	8.67663
22.59233	-12.43625	8.67663
22.59673	-12.43625	8.67663
22.60093	-12.43625	8.67663
22.60512	-12.43625	8.67663
22.60932	-12.43625	8.67663
22.61351	-12.43625	8.67663
22.61770	-12.43625	8.67663
22.62188	-12.43625	8.67663
22.62618	-12.41427	8.67663
22.63039	-12.41427	8.67663
22.63458	-12.41427	8.67663
22.63877	-12.41427	8.67663
22.64296	-12.41427	8.67663
22.64714	-12.41427	8.67663
22.65133	-12.39230	8.67663
22.65574	-12.39230	8.67663
22.65997	-12.39230	8.67663
22.66416	-12.39230	8.67663
22.66834	-12.39230	8.67663
22.67253	-12.39230	8.67663
22.67672	-12.37033	8.67663
22.68091	-12.39230	8.67663
22.68514	-12.37033	8.67663
22.68942	-12.37033	8.67663
22.69362	-12.37033	8.67663
22.69791	-12.37033	8.67663
22.70211	-12.37033	8.67663
22.70630	-12.34836	8.67663
22.71049	-12.34836	8.67663
22.71468	-12.37033	8.67663
22.71898	-12.37033	8.67663
22.72319	-12.34836	8.67663
22.72738	-12.34836	8.67663
22.73157	-12.34836	8.67663
22.73576	-12.34836	8.67663
22.73995	-12.34836	8.67663
22.74414	-12.32638	8.67663
22.74844	-12.32638	8.67663
22.75266	-12.34836	8.67663
22.75685	-12.32638	8.67663
22.76104	-12.32638	8.67663
22.76523	-12.32638	8.67663
22.76942	-12.32638	8.67663
22.77360	-12.32638	8.67663
22.77804	-12.32638	8.67663
22.78225	-12.30441	8.67663
22.78645	-12.30441	8.67663
22.79064	-12.30441	8.67663
22.79482	-12.30441	8.67663
22.79912	-12.30441	8.67663
22.80330	-12.30441	8.67663
22.80754	-12.30441	8.67663
22.81180	-12.30441	8.67663
22.81601	-12.28244	8.67663
22.82020	-12.28244	8.67663
22.82439	-12.28244	8.67663
22.82858	-12.28244	8.67663
22.83276	-12.28244	8.67663
22.83695	-12.28244	8.67663
22.84124	-12.28244	8.67663
22.84544	-12.28244	8.67663
22.84963	-12.28244	8.67663
22.85382	-12.28244	8.67663
22.85801	-12.28244	8.67663
22.86220	-12.28244	8.67663
22.86638	-12.26047	8.67663
22.87068	-12.28244	8.67663
22.87489	-12.26047	8.67663
22.87908	-12.26047	8.67663
22.88326	-12.26047	8.67663
22.88745	-12.26047	8.67663
22.89164	-12.26047	8.67663
22.89583	-12.26047	8.67663
22.90035	-12.23849	8.67663
22.90456	-12.26047	8.67663
22.90875	-12.23849	8.67663
22.91293	-12.23849	8.67663
22.91712	-12.23849	8.67663
22.92131	-12.23849	8.67663
22.92550	-12.21652	8.67663
22.92973	-12.23849	8.67663
22.93400	-12.23849	8.67663
22.93820	-12.21652	8.67663
22.94239	-12.23849	8.67663
22.94658	-12.21652	8.67663
22.95076	-12.21652	8.67663
22.95495	-12.21652	8.67663
22.95914	-12.21652	8.67663
22.96343	-12.21652	8.67663
22.96764	-12.21652	8.67663
22.97183	-12.19455	8.67663
22.97603	-12.21652	8.67663
22.98021	-12.21652	8.67663
22.98440	-12.19455	8.67663
22.98859	-12.21652	8.67663
22.99289	-12.19455	8.67663
22.99709	-12.19455	8.67663
23.00139	-12.19455	8.67663
23.00558	-12.19455	8.67663
23.00977	-12.19455	8.67663
23.01395	-12.19455	8.67663
23.01814	-12.19455	8.67663
23.02255	-12.17257	8.67663
23.02676	-12.19455	8.67663
23.03095	-12.17257	8.67663
23.03514	-12.19455	8.67663
23.03933	-12.19455	8.67663
23.04352	-12.17257	8.67663
23.04771	-12.17257	8.67663
23.05198	-12.17257	8.67663
23.05626	-12.17257	8.67663
23.06045	-12.17257	8.67663
23.06464	-12.17257	8.67663
23.06883	-12.17257	8.67663
23.07302	-12.17257	8.67663
23.07721	-12.17257	8.67663
23.08139	-12.15060	8.67663
23.08569	-12.17257	8.67663
23.08989	-12.15060	8.67663
23.09408	-12.15060	8.67663
23.09826	-12.17257	8.67663
23.10255	-12.17257	8.67663
23.10674	-12.17257	8.67663
23.11092	-12.17257	8.67663
23.11523	-12.17257	8.67663
23.11944	-12.15060	8.67663
23.12363	-12.17257	8.67663
23.12782	-12.15060	8.67663
23.13201	-12.17257	8.67663
23.13620	-12.15060	8.67663
23.14038	-12.15060	8.67663
23.14475	-12.15060	8.67663
23.14896	-12.17257	8.67663
23.15316	-12.15060	8.67663
23.15735	-12.17257	8.67663
23.16153	-12.15060	8.67663
23.16572	-12.15060	8.67663
23.16990	-12.15060	8.67663
23.17414	-12.15060	8.67663
23.17840	-12.15060	8.67663
23.18259	-12.15060	8.67663
23.18678	-12.15060	8.67663
23.19097	-12.15060	8.67663
23.19515	-12.15060	8.67663
23.19934	-12.15060	8.67663
23.20363	-12.15060	8.67663
23.20792	-12.15060	8.67663
23.21213	-12.15060	8.67663
23.21634	-12.15060	8.67663
23.22054	-12.15060	8.67663
23.22473	-12.15060	8.67663
23.22891	-12.15060	8.67663
23.23310	-12.15060	8.67663
23.23741	-12.15060	8.67663
23.24162	-12.15060	8.67663
23.24581	-12.15060	8.67663
23.24999	-12.15060	8.67663
23.25418	-12.15060	8.67663
23.25837	-12.12863	8.67663
23.26255	-12.15060	8.67663
23.26697	-12.15060	8.67663
23.27119	-12.15060	8.67663
23.27538	-12.15060	8.67663
23.27957	-12.15060	8.67663
23.28375	-12.12863	8.67663
23.28795	-12.15060	8.67663
23.29214	-12.12863	8.67663
23.29637	-12.12863	8.67663
23.30064	-12.12863	8.67663
23.30494	-12.15060	8.67663
23.30913	-12.15060	8.67663
23.31333	-12.15060	8.67663
23.31752	-12.15060	8.67663
23.32170	-12.12863	8.67663
23.32589	-12.12863	8.67663
23.33018	-12.15060	8.67663
23.33438	-12.12863	8.67663
23.33858	-12.12863	8.67663
23.34276	-12.12863	8.67663
23.34695	-12.15060	8.67663
23.35114	-12.12863	8.67663
23.35533	-12.12863	8.67663
23.35963	-12.12863	8.67663
23.36384	-12.15060	8.67663
23.36803	-12.12863	8.67663
23.37222	-12.15060	8.67663
23.37641	-12.12863	8.67663
23.38060	-12.12863	8.67663
23.38479	-12.15060	8.67663
23.38916	-12.15060	8.67663
23.39338	-12.15060	8.67663
23.39756	-12.15060	8.67663
23.40175	-12.15060	8.67663
23.40605	-12.15060	8.67663
23.41023	-12.15060	8.67663
23.41443	-12.15060	8.67663
23.41866	-12.17257	8.67663
23.42293	-12.15060	8.67663
23.42712	-12.15060	8.67663
23.43134	-12.15060	8.67663
23.43554	-12.15060	8.67663
23.43973	-12.15060	8.67663
23.44393	-12.15060	8.67663
23.44812	-12.15060	8.67663
23.45241	-12.17257	8.67663
23.45661	-12.17257	8.67663
23.46080	-12.17257	8.67663
23.46499	-12.17257	8.67663
23.46918	-12.19455	8.67663
23.47337	-12.17257	8.67663
23.47755	-12.19455	8.67663
23.48185	-12.19455	8.67663
23.48607	-12.19455	8.67663
23.49026	-12.17257	8.67663
23.49448	-12.19455	8.67663
23.49874	-12.19455	8.67663
23.50294	-12.19455	8.67663
23.50725	-12.19455	8.67663
23.51157	-12.21652	8.67663
23.51582	-12.21652	8.67663
23.52003	-12.19455	8.67663
23.52422	-12.21652	8.67663
23.52841	-12.21652	8.67663
23.53260	-12.23849	8.67663
23.53679	-12.23849	8.67663
23.54104	-12.23849	8.67663
23.54532	-12.21652	8.67663
23.54951	-12.23849	8.67663
23.55370	-12.23849	8.67663
23.55789	-12.23849	8.67663
23.56208	-12.23849	8.67663
23.56627	-12.23849	8.67663
23.57045	-12.23849	8.67663
23.57475	-12.26047	8.67663
23.57896	-12.26047	8.67663
23.58315	-12.26047	8.67663
23.58734	-12.26047	8.67663
23.59152	-12.26047	8.67663
23.59571	-12.26047	8.67663
23.59990	-12.28244	8.67663
23.60419	-12.26047	8.67663
23.60850	-12.28244	8.67663
23.61269	-12.28244	8.67663
23.61689	-12.28244	8.67663
23.62108	-12.28244	8.67663
23.62527	-12.28244	8.67663
23.62945	-12.28244	8.67663
23.63384	-12.30441	8.67663
23.63806	-12.30441	8.67663
23.64225	-12.30441	8.67663
23.64644	-12.30441	8.67663
23.65062	-12.30441	8.67663
23.65481	-12.30441	8.67663
23.65899	-12.32638	8.67663
23.66323	-12.32638	8.67663
23.66749	-12.32638	8.67663
23.67174	-12.32638	8.67663
23.67595	-12.32638	8.67663
23.68014	-12.34836	8.67663
23.68432	-12.32638	8.67663
23.68851	-12.34836	8.67663
23.69270	-12.34836	8.67663
23.69706	-12.34836	8.67663
23.70128	-12.34836	8.67663
23.70549	-12.37033	8.67663
23.70981	-12.34836	8.67663
23.71400	-12.37033	8.67663
23.71821	-12.37033	8.67663
23.72241	-12.37033	8.67663
23.72677	-12.37033	8.67663
23.73099	-12.37033	8.67663
23.73529	-12.37033	8.67663
23.73949	-12.37033	8.67663
23.74368	-12.39230	8.67663
23.74786	-12.39230	8.67663
23.75206	-12.39230	8.67663
23.75678	-12.39230	8.67663
23.76102	-12.39230	8.67663
23.76523	-12.39230	8.67663
23.76944	-12.41427	8.67663
23.77364	-12.41427	8.67663
23.77784	-12.41427	8.67663
23.78204	-12.41427	8.67663
23.78628	-12.41427	8.67663
23.79056	-12.41427	8.67663
23.79476	-12.41427	8.67663
23.79896	-12.43625	8.67663
23.80316	-12.43625	8.67663
23.80735	-12.43625	8.67663
23.81166	-12.41427	8.67663
23.81585	-12.43625	8.67663
23.82017	-12.43625	8.67663
23.82438	-12.43625	8.67663
23.82857	-12.43625	8.67663
23.83276	-12.43625	8.67663
23.83695	-12.43625	8.67663
23.84114	-12.43625	8.67663
23.84534	-12.45822	8.67663
23.84965	-12.45822	8.67663
23.85386	-12.43625	8.67663
23.85806	-12.45822	8.67663
23.86225	-12.45822	8.67663
23.86644	-12.45822	8.67663
23.87063	-12.45822	8.67663
23.87483	-12.48019	8.67663
23.87925	-12.45822	8.67663
23.88347	-12.45822	8.67663
23.88766	-12.45822	8.67663
23.89185	-12.45822	8.67663
23.89604	-12.48019	8.67663
23.90023	-12.48019	8.67663
23.90441	-12.48019	8.67663
23.90865	-12.48019	8.67663
23.91302	-12.48019	8.67663
23.91721	-12.48019	8.67663
23.92140	-12.48019	8.67663
23.92558	-12.48019	8.67663
23.92977	-12.48019	8.67663
23.93395	-12.48019	8.67663
23.93814	-12.48019	8.67663
23.94243	-12.48019	8.67663
23.94664	-12.48019	8.67663
23.95083	-12.48019	8.67663
23.95502	-12.48019	8.67663
23.95920	-12.48019	8.67663
23.96339	-12.50216	8.67663
23.96758	-12.50216	8.67663
23.97188	-12.48019	8.67663
23.97609	-12.50216	8.67663
23.98028	-12.50216	8.67663
23.98447	-12.50216	8.67663
23.98865	-12.50216	8.67663
23.99284	-12.50216	8.67663
23.99703	-12.50216	8.67663
24.00145	-12.50216	8.67663
24.00566	-12.48019	8.67663
24.00985	-12.48019	8.67663
24.01414	-12.48019	8.67663
24.01833	-12.48019	8.67663
24.02252	-12.50216	8.67663
24.02670	-12.50216	8.67663
24.03093	-12.50216	8.67663
24.03520	-12.48019	8.67663
24.03940	-12.50216	8.67663
24.04359	-12.50216	8.67663
24.04777	-12.50216	8.67663
24.05197	-12.50216	8.67663
24.05616	-12.48019	8.67663
24.06034	-12.50216	8.67663
24.06464	-12.50216	8.67663
24.06884	-12.50216	8.67663
24.07303	-12.50216	8.67663
24.07721	-12.50216	8.67663
24.08140	-12.50216	8.67663
24.08558	-12.50216	8.67663
24.08977	-12.48019	8.67663
24.09406	-12.48019	8.67663
24.09826	-12.48019	8.67663
24.10245	-12.48019	8.67663
24.10664	-12.48019	8.67663
24.11082	-12.48019	8.67663
24.11511	-12.48019	8.67663
24.11932	-12.48019	8.67663
24.12376	-12.48019	8.67663
24.12799	-12.45822	8.67663
24.13218	-12.48019	8.67663
24.13637	-12.45822	8.67663
24.14056	-12.45822	8.67663
24.14475	-12.48019	8.67663
24.14893	-12.45822	8.67663
24.15316	-12.45822	8.67663
24.15744	-12.48019	8.67663
24.16163	-12.45822	8.67663
24.16582	-12.45822	8.67663
24.17001	-12.45822	8.67663
24.17419	-12.45822	8.67663
24.17838	-12.45822	8.67663
24.18256	-12.45822	8.67663
24.18686	-12.43625	8.67663
24.19106	-12.43625	8.67663
24.19525	-12.43625	8.67663
24.19943	-12.43625	8.67663
24.20362	-12.43625	8.67663
24.20781	-12.43625	8.67663
24.21200	-12.41427	8.67663
24.21641	-12.41427	8.67663
24.22061	-12.41427	8.67663
24.22480	-12.43625	8.67663
24.22899	-12.43625	8.67663
24.23318	-12.41427	8.67663
24.23736	-12.41427	8.67663
24.24155	-12.41427	8.67663
24.24597	-12.41427	8.67663
24.25018	-12.41427	8.67663
24.25437	-12.41427	8.67663
24.25856	-12.39230	8.67663
24.26274	-12.39230	8.67663
24.26693	-12.39230	8.67663
24.27111	-12.39230	8.67663
24.27534	-12.39230	8.67663
24.27961	-12.39230	8.67663
24.28380	-12.37033	8.67663
24.28800	-12.39230	8.67663
24.29219	-12.37033	8.67663
24.29637	-12.39230	8.67663
24.30056	-12.37033	8.67663
24.30474	-12.37033	8.67663
24.30903	-12.37033	8.67663
24.31323	-12.37033	8.67663
24.31752	-12.34836	8.67663
24.32171	-12.34836	8.67663
24.32590	-12.34836	8.67663
24.33008	-12.34836	8.67663
24.33427	-12.34836	8.67663
24.33857	-12.34836	8.67663
24.34278	-12.32638	8.67663
24.34697	-12.34836	8.67663
24.35115	-12.32638	8.67663
24.35534	-12.32638	8.67663
24.35953	-12.32638	8.67663
24.36371	-12.32638	8.67663
24.36815	-12.32638	8.67663
24.37236	-12.32638	8.67663
24.37655	-12.32638	8.67663
24.38074	-12.32638	8.67663
24.38493	-12.32638	8.67663
24.38911	-12.30441	8.67663
24.39330	-12.30441	8.67663
24.39753	-12.30441	8.67663
24.40179	-12.30441	8.67663
24.40599	-12.30441	8.67663
24.41018	-12.30441	8.67663
24.41436	-12.30441	8.67663
24.41865	-12.28244	8.67663
24.42285	-12.30441	8.67663
24.42703	-12.28244	8.67663
24.43133	-12.30441	8.67663
24.43554	-12.28244	8.67663
24.43973	-12.28244	8.67663
24.44391	-12.28244	8.67663
24.44806	-12.28244	8.67663
24.45225	-12.28244	8.67663
24.45643	-12.28244	8.67663
24.46073	-12.28244	8.67663
24.46494	-12.28244	8.67663
24.46913	-12.28244	8.67663
24.47331	-12.26047	8.67663
24.47750	-12.28244	8.67663
24.48169	-12.26047	8.67663
24.48591	-12.26047	8.67663
24.49031	-12.26047	8.67663
24.49454	-12.26047	8.67663
24.49874	-12.26047	8.67663
24.50293	-12.26047	8.67663
24.50712	-12.23849	8.67663
24.51132	-12.26047	8.67663
24.51551	-12.26047	8.67663
24.51987	-12.26047	8.67663
24.52416	-12.23849	8.67663
24.52835	-12.26047	8.67663
24.53254	-12.23849	8.67663
24.53673	-12.23849	8.67663
24.54092	-12.23849	8.67663
24.54510	-12.23849	8.67663
24.54929	-12.23849	8.67663
24.55359	-12.23849	8.67663
24.55779	-12.23849	8.67663
24.56198	-12.23849	8.67663
24.56616	-12.23849	8.67663
24.57035	-12.21652	8.67663
24.57454	-12.23849	8.67663
24.57872	-12.23849	8.67663
24.58303	-12.21652	8.67663
24.58725	-12.23849	8.67663
24.59144	-12.21652	8.67663
24.59563	-12.21652	8.67663
24.59981	-12.21652	8.67663
24.60401	-12.21652	8.67663
24.60819	-12.21652	8.67663
24.61262	-12.21652	8.67663
24.61684	-12.21652	8.67663
24.62114	-12.21652	8.67663
24.62534	-12.21652	8.67663
24.62952	-12.19455	8.67663
24.63371	-12.21652	8.67663
24.63789	-12.21652	8.67663
24.64213	-12.19455	8.67663
24.64640	-12.21652	8.67663
24.65060	-12.21652	8.67663
24.65479	-12.19455	8.67663
24.65897	-12.21652	8.67663
24.66316	-12.19455	8.67663
24.66734	-12.19455	8.67663
24.67153	-12.19455	8.67663
24.67581	-12.19455	8.67663
24.68003	-12.19455	8.67663
24.68422	-12.19455	8.67663
24.68841	-12.19455	8.67663
24.69259	-12.19455	8.67663
24.69678	-12.19455	8.67663
24.70097	-12.17257	8.67663
24.70526	-12.17257	8.67663
24.70947	-12.19455	8.67663
24.71366	-12.17257	8.67663
24.71785	-12.19455	8.67663
24.72214	-12.19455	8.67663
24.72634	-12.19455	8.67663
24.73052	-12.19455	8.67663
24.73490	-12.19455	8.67663
24.73912	-12.17257	8.67663
24.74331	-12.19455	8.67663
24.74749	-12.17257	8.67663
24.75168	-12.17257	8.67663
24.75587	-12.19455	8.67663
24.76006	-12.17257	8.67663
24.76430	-12.19455	8.67663
24.76856	-12.19455	8.67663
24.77276	-12.17257	8.67663
24.77694	-12.17257	8.67663
24.78113	-12.19455	8.67663
24.78531	-12.17257	8.67663
24.78950	-12.19455	8.67663
24.79368	-12.19455	8.67663
24.79797	-12.17257	8.67663
24.80217	-12.19455	8.67663
24.80636	-12.19455	8.67663
24.81055	-12.17257	8.67663
24.81473	-12.19455	8.67663
24.81892	-12.19455	8.67663
24.82321	-12.19455	8.67663
24.82750	-12.19455	8.67663
24.83171	-12.19455	8.67663
24.83590	-12.19455	8.67663
24.84006	-12.19455	8.67663
24.84425	-12.19455	8.67663
24.84843	-12.19455	8.67663
24.85262	-12.19455	8.67663
24.85704	-12.19455	8.67663
24.86125	-12.19455	8.67663
24.86544	-12.21652	8.67663
24.86963	-12.19455	8.67663
24.87382	-12.19455	8.67663
24.87800	-12.19455	8.67663
24.88219	-12.21652	8.67663
24.88642	-12.21652	8.67663
24.89068	-12.21652	8.67663
24.89488	-12.21652	8.67663
24.89906	-12.21652	8.67663
24.90325	-12.21652	8.67663
24.90744	-12.21652	8.67663
24.91162	-12.21652	8.67663
24.91581	-12.21652	8.67663
24.92012	-12.21652	8.67663
24.92442	-12.23849	8.67663
24.92862	-12.21652	8.67663
24.93281	-12.23849	8.67663
24.93699	-12.23849	8.67663
24.94118	-12.23849	8.67663
24.94536	-12.23849	8.67663
24.94966	-12.23849	8.67663
24.95387	-12.23849	8.67663
24.95806	-12.26047	8.67663
24.96224	-12.23849	8.67663
24.96643	-12.23849	8.67663
24.97062	-12.23849	8.67663
24.97481	-12.23849	8.67663
24.97925	-12.23849	8.67663
24.98347	-12.26047	8.67663
24.98767	-12.23849	8.67663
24.99186	-12.23849	8.67663
24.99606	-12.26047	8.67663
25.00025	-12.26047	8.67663
25.00445	-12.26047	8.67663
25.00870	-12.26047	8.67663
25.01297	-12.26047	8.67663
25.01718	-12.26047	8.67663
25.02137	-12.26047	8.67663
25.02568	-12.26047	8.67663
25.02988	-12.28244	8.67663
25.03407	-12.26047	8.67663
25.03826	-12.26047	8.67663
25.04256	-12.28244	8.67663
25.04676	-12.28244	8.67663
25.05096	-12.28244	8.67663
25.05515	-12.28244	8.67663
25.05936	-12.28244	8.67663
25.06356	-12.30441	8.67663
25.06776	-12.30441	8.67663
25.07210	-12.28244	8.67663
25.07631	-12.28244	8.67663
25.08051	-12.28244	8.67663
25.08470	-12.28244	8.67663
25.08890	-12.30441	8.67663
25.09309	-12.30441	8.67663
25.09728	-12.30441	8.67663
25.10166	-12.30441	8.67663
25.10591	-12.30441	8.67663
25.11011	-12.30441	8.67663
25.11431	-12.30441	8.67663
25.11850	-12.30441	8.67663
25.12269	-12.30441	8.67663
25.12700	-12.32638	8.67663
25.13124	-12.30441	8.67663
25.13551	-12.30441	8.67663
25.13971	-12.32638	8.67663
25.14390	-12.32638	8.67663
25.14806	-12.32638	8.67663
25.15225	-12.32638	8.67663
25.15644	-12.32638	8.67663
25.16062	-12.32638	8.67663
25.16492	-12.32638	8.67663
25.16913	-12.32638	8.67663
25.17332	-12.34836	8.67663
25.17750	-12.34836	8.67663
25.18169	-12.32638	8.67663
25.18587	-12.34836	8.67663
25.19006	-12.34836	8.67663
25.19436	-12.34836	8.67663
25.19857	-12.34836	8.67663
25.20278	-12.34836	8.67663
25.20697	-12.34836	8.67663
25.21115	-12.37033	8.67663
25.21534	-12.37033	8.67663
25.21953	-12.37033	8.67663
25.22395	-12.37033	8.67663
25.22830	-12.37033	8.67663
25.23250	-12.37033	8.67663
25.23670	-12.37033	8.67663
25.24089	-12.37033	8.67663
25.24508	-12.39230	8.67663
25.24926	-12.39230	8.67663
25.25351	-12.39230	8.67663
25.25777	-12.39230	8.67663
25.26197	-12.39230	8.67663
25.26616	-12.39230	8.67663
25.27034	-12.41427	8.67663
25.27453	-12.39230	8.67663
25.27872	-12.39230	8.67663
25.28290	-12.41427	8.67663
25.28720	-12.41427	8.67663
25.29140	-12.41427	8.67663
25.29559	-12.43625	8.67663
25.29978	-12.41427	8.67663
25.30397	-12.43625	8.67663
25.30816	-12.43625	8.67663
25.31236	-12.43625	8.67663
25.31668	-12.43625	8.67663
25.32089	-12.43625	8.67663
25.32508	-12.43625	8.67663
25.32938	-12.43625	8.67663
25.33357	-12.45822	8.67663
25.33776	-12.43625	8.67663
25.34194	-12.45822	8.67663
25.34636	-12.45822	8.67663
25.35058	-12.45822	8.67663
25.35477	-12.48019	8.67663
25.35896	-12.48019	8.67663
25.36314	-12.45822	8.67663
25.36733	-12.48019	8.67663
25.37151	-12.48019	8.67663
25.37575	-12.48019	8.67663
25.38003	-12.48019	8.67663
25.38424	-12.48019	8.67663
25.38844	-12.48019	8.67663
25.39262	-12.50216	8.67663
25.39681	-12.50216	8.67663
25.40099	-12.50216	8.67663
25.40518	-12.50216	8.67663
25.40948	-12.52414	8.67663
25.41368	-12.52414	8.67663
25.41787	-12.50216	8.67663
25.42206	-12.52414	8.67663
25.42625	-12.52414	8.67663
25.43054	-12.52414	8.67663
25.43472	-12.52414	8.67663
25.43903	-12.52414	8.67663
25.44323	-12.52414	8.67663
25.44742	-12.52414	8.67663
25.45161	-12.54611	8.67663
25.45579	-12.54611	8.67663
25.45999	-12.56808	8.67663
25.46417	-12.56808	8.67663
25.46858	-12.56808	8.67663
25.47280	-12.56808	8.67663
25.47699	-12.56808	8.67663
25.48118	-12.56808	8.67663
25.48536	-12.59006	8.67663
25.48955	-12.56808	8.67663
25.49374	-12.56808	8.67663
25.49797	-12.59006	8.67663
25.50224	-12.59006	8.67663
25.50645	-12.59006	8.67663
25.51064	-12.61203	8.67663
25.51483	-12.59006	8.67663
25.51902	-12.59006	8.67663
25.52321	-12.61203	8.67663
25.52740	-12.61203	8.67663
25.53181	-12.61203	8.67663
25.53603	-12.63400	8.67663
25.54023	-12.63400	8.67663
25.54441	-12.61203	8.67663
25.54860	-12.63400	8.67663
25.55279	-12.63400	8.67663
25.55697	-12.65597	8.67663
25.56128	-12.63400	8.67663
25.56549	-12.63400	8.67663
25.56968	-12.63400	8.67663
25.57387	-12.65597	8.67663
25.57806	-12.63400	8.67663
25.58224	-12.65597	8.67663
25.58643	-12.65597	8.67663
25.59087	-12.65597	8.67663
25.59508	-12.65597	8.67663
25.59927	-12.65597	8.67663
25.60346	-12.65597	8.67663
25.60765	-12.65597	8.67663
25.61184	-12.65597	8.67663
25.61603	-12.67795	8.67663
25.62027	-12.65597	8.67663
25.62454	-12.65597	8.67663
25.62874	-12.67795	8.67663
25.63303	-12.67795	8.67663
25.63722	-12.67795	8.67663
25.64141	-12.69992	8.67663
25.64559	-12.67795	8.67663
25.64978	-12.67795	8.67663
25.65408	-12.67795	8.67663
25.65828	-12.67795	8.67663
25.66247	-12.67795	8.67663
25.66666	-12.69992	8.67663
25.67085	-12.67795	8.67663
25.67504	-12.67795	8.67663
25.67922	-12.69992	8.67663
25.68352	-12.67795	8.67663
25.68773	-12.67795	8.67663
25.69193	-12.69992	8.67663
25.69612	-12.67795	8.67663
25.70031	-12.69992	8.67663
25.70450	-12.69992	8.67663
25.70868	-12.67795	8.67663
25.71312	-12.69992	8.67663
25.71733	-12.69992	8.67663
25.72152	-12.69992	8.67663
25.72571	-12.69992	8.67663
25.72989	-12.69992	8.67663
25.73419	-12.69992	8.67663
25.73839	-12.69992	8.67663
25.74262	-12.67795	8.67663
25.74688	-12.69992	8.67663
25.75108	-12.69992	8.67663
25.75527	-12.69992	8.67663
25.75946	-12.67795	8.67663
25.76365	-12.69992	8.67663
25.76783	-12.67795	8.67663
25.77203	-12.69992	8.67663
25.77633	-12.67795	8.67663
25.78053	-12.67795	8.67663
25.78472	-12.69992	8.67663
25.78891	-12.69992	8.67663
25.79310	-12.67795	8.67663
25.79729	-12.69992	8.67663
25.80147	-12.69992	8.67663
25.80577	-12.67795	8.67663
25.80998	-12.67795	8.67663
25.81417	-12.67795	8.67663
25.81835	-12.67795	8.67663
25.82254	-12.67795	8.67663
25.82673	-12.65597	8.67663
25.83091	-12.65597	8.67663
25.83547	-12.67795	8.67663
25.83970	-12.67795	8.67663
25.84389	-12.65597	8.67663
25.84807	-12.65597	8.67663
25.85226	-12.65597	8.67663
25.85646	-12.65597	8.67663
25.86065	-12.65597	8.67663
25.86489	-12.65597	8.67663
25.86917	-12.65597	8.67663
25.87337	-12.63400	8.67663
25.87756	-12.63400	8.67663
25.88175	-12.63400	8.67663
25.88594	-12.63400	8.67663
25.89014	-12.61203	8.67663
25.89433	-12.63400	8.67663
25.89863	-12.61203	8.67663
25.90285	-12.61203	8.67663
25.90704	-12.61203	8.67663
25.91123	-12.59006	8.67663
25.91543	-12.59006	8.67663
25.91962	-12.61203	8.67663
25.92381	-12.59006	8.67663
25.92813	-12.59006	8.67663
25.93234	-12.56808	8.67663
25.93665	-12.56808	8.67663
25.94084	-12.59006	8.67663
25.94503	-12.59006	8.67663
25.94922	-12.56808	8.67663
25.95341	-12.56808	8.67663
25.95784	-12.54611	8.67663
25.96206	-12.54611	8.67663
25.96625	-12.54611	8.67663
25.97045	-12.54611	8.67663
25.97464	-12.52414	8.67663
25.97883	-12.52414	8.67663
25.98302	-12.50216	8.67663
25.98725	-12.50216	8.67663
25.99152	-12.50216	8.67663
25.99571	-12.50216	8.67663
25.99990	-12.48019	8.67663
26.00407	-12.48019	8.67663
26.00826	-12.48019	8.67663
26.01244	-12.48019	8.67663
26.01663	-12.45822	8.67663
26.02093	-12.45822	8.67663
26.02513	-12.45822	8.67663
26.02932	-12.45822	8.67663
26.03350	-12.43625	8.67663
26.03779	-12.43625	8.67663
26.04199	-12.43625	8.67663
26.04617	-12.41427	8.67663
26.05047	-12.41427	8.67663
26.05469	-12.39230	8.67663
26.05888	-12.41427	8.67663
26.06306	-12.39230	8.67663
26.06725	-12.37033	8.67663
26.07144	-12.37033	8.67663
26.07562	-12.39230	8.67663
26.08007	-12.34836	8.67663
26.08428	-12.34836	8.67663
26.08847	-12.34836	8.67663
26.09266	-12.34836	8.67663
26.09685	-12.34836	8.67663
26.10103	-12.32638	8.67663
26.10522	-12.32638	8.67663
26.10945	-12.32638	8.67663
26.11372	-12.30441	8.67663
26.11792	-12.30441	8.67663
26.12211	-12.28244	8.67663
26.12629	-12.28244	8.67663
26.13048	-12.28244	8.67663
26.13467	-12.28244	8.67663
26.13896	-12.26047	8.67663
26.14325	-12.26047	8.67663
26.14745	-12.26047	8.67663
26.15164	-12.23849	8.67663
26.15583	-12.23849	8.67663
26.16003	-12.23849	8.67663
26.16421	-12.21652	8.67663
26.16840	-12.21652	8.67663
26.17271	-12.19455	8.67663
26.17691	-12.19455	8.67663
26.18110	-12.21652	8.67663
26.18529	-12.19455	8.67663
26.18948	-12.17257	8.67663
26.19366	-12.17257	8.67663
26.19785	-12.15060	8.67663
26.20227	-12.15060	8.67663
26.20648	-12.15060	8.67663
26.21067	-12.15060	8.67663
26.21486	-12.12863	8.67663
26.21905	-12.12863	8.67663
26.22324	-12.10666	8.67663
26.22742	-12.10666	8.67663
26.23166	-12.10666	8.67663
26.23594	-12.08468	8.67663
26.24024	-12.08468	8.67663
26.24443	-12.08468	8.67663
26.24862	-12.06271	8.67663
26.25280	-12.06271	8.67663
26.25698	-12.06271	8.67663
26.26117	-12.04074	8.67663
26.26546	-12.04074	8.67663
26.26966	-12.01877	8.67663
26.27385	-12.01877	8.67663
26.27805	-12.01877	8.67663
26.28224	-12.01877	8.67663
26.28643	-12.01877	8.67663
26.29061	-11.99679	8.67663
26.29491	-11.97482	8.67663
26.29912	-11.97482	8.67663
26.30331	-11.97482	8.67663
26.30750	-11.95285	8.67663
26.31168	-11.95285	8.67663
26.31587	-11.95285	8.67663
26.32006	-11.93088	8.67663
26.32449	-11.95285	8.67663
26.32870	-11.90890	8.67663
26.33289	-11.90890	8.67663
26.33707	-11.90890	8.67663
26.34136	-11.90890	8.67663
26.34555	-11.88693	8.67663
26.34973	-11.88693	8.67663
26.35396	-11.86496	8.67663
26.35823	-11.86496	8.67663
26.36242	-11.86496	8.67663
26.36661	-11.84298	8.67663
26.37080	-11.84298	8.67663
26.37499	-11.84298	8.67663
26.37917	-11.82101	8.67663
26.38336	-11.82101	8.67663
26.38765	-11.82101	8.67663
26.39185	-11.79904	8.67663
26.39605	-11.77707	8.67663
26.40023	-11.77707	8.67663
26.40442	-11.77707	8.67663
26.40861	-11.75509	8.67663
26.41279	-11.75509	8.67663
26.41709	-11.73312	8.67663
26.42130	-11.73312	8.67663
26.42549	-11.73312	8.67663
26.42967	-11.73312	8.67663
26.43386	-11.71115	8.67663
26.43805	-11.71115	8.67663
26.44234	-11.71115	8.67663
26.44670	-11.68918	8.67663
26.45093	-11.68918	8.67663
26.45513	-11.66720	8.67663
26.45931	-11.66720	8.67663
26.46350	-11.64523	8.67663
26.46769	-11.64523	8.67663
26.47188	-11.64523	8.67663
26.47611	-11.62326	8.67663
26.48038	-11.62326	8.67663
26.48458	-11.62326	8.67663
26.48877	-11.60129	8.67663
26.49296	-11.60129	8.67663
26.49714	-11.60129	8.67663
26.50133	-11.57931	8.67663
26.50552	-11.57931	8.67663
26.50982	-11.55734	8.67663
26.51403	-11.55734	8.67663
26.51823	-11.55734	8.67663
26.52242	-11.53537	8.67663
26.52660	-11.53537	8.67663
26.53079	-11.53537	8.67663
26.53498	-11.51339	8.67663
26.53928	-11.53537	8.67663
26.54360	-11.53537	8.67663
26.54779	-11.49142	8.67663
26.55199	-11.49142	8.67663
26.55617	-11.46945	8.67663
26.56036	-11.46945	8.67663
26.56455	-11.46945	8.67663
26.56895	-11.46945	8.67663
26.57317	-11.44748	8.67663
26.57736	-11.44748	8.67663
26.58155	-11.42550	8.67663
26.58574	-11.42550	8.67663
26.58992	-11.42550	8.67663
26.59411	-11.42550	8.67663
26.59835	-11.40353	8.67663
26.60262	-11.40353	8.67663
26.60681	-11.38156	8.67663
26.61100	-11.38156	8.67663
26.61519	-11.35959	8.67663
26.61937	-11.35959	8.67663
26.62356	-11.35959	8.67663
26.62775	-11.35959	8.67663
26.63206	-11.33761	8.67663
26.63627	-11.33761	8.67663
26.64046	-11.33761	8.67663
26.64476	-11.31564	8.67663
26.64895	-11.31564	8.67663
26.65313	-11.31564	8.67663
26.65732	-11.31564	8.67663
26.66162	-11.29367	8.67663
26.66582	-11.27170	8.67663
26.67001	-11.29367	8.67663
26.67419	-11.27170	8.67663
26.67838	-11.27170	8.67663
26.68257	-11.27170	8.67663
26.68675	-11.27170	8.67663
26.69120	-11.24972	8.67663
26.69541	-11.24972	8.67663
26.69961	-11.24972	8.67663
26.70380	-11.22775	8.67663
26.70800	-11.22775	8.67663
26.71220	-11.22775	8.67663
26.71639	-11.20578	8.67663
26.72063	-11.20578	8.67663
26.72491	-11.20578	8.67663
26.72911	-11.20578	8.67663
26.73330	-11.20578	8.67663
26.73749	-11.18381	8.67663
26.74168	-11.18381	8.67663
26.74600	-11.18381	8.67663
26.75019	-11.18381	8.67663
26.75449	-11.18381	8.67663
26.75870	-11.18381	8.67663
26.76289	-11.16183	8.67663
26.76708	-11.16183	8.67663
26.77127	-11.16183	8.67663
26.77547	-11.13986	8.67663
26.77966	-11.13986	8.67663
26.78399	-11.13986	8.67663
26.78820	-11.13986	8.67663
26.79240	-11.13986	8.67663
26.79659	-11.11789	8.67663
26.80078	-11.11789	8.67663
26.80498	-11.11789	8.67663
26.80917	-11.11789	8.67663
26.81358	-11.09591	8.67663
26.81780	-11.11789	8.67663
26.82199	-11.09591	8.67663
26.82619	-11.09591	8.67663
26.83038	-11.09591	8.67663
26.83457	-11.09591	8.67663
26.83876	-11.07394	8.67663
26.84300	-11.09591	8.67663
26.84741	-11.07394	8.67663
26.85161	-11.09591	8.67663
26.85580	-11.07394	8.67663
26.85999	-11.07394	8.67663
26.86418	-11.07394	8.67663
26.86837	-11.05197	8.67663
26.87255	-11.05197	8.67663
26.87684	-11.07394	8.67663
26.88104	-11.05197	8.67663
26.88523	-11.05197	8.67663
26.88942	-11.05197	8.67663
26.89360	-11.03000	8.67663
26.89779	-11.05197	8.67663
26.90198	-11.05197	8.67663
26.90628	-11.03000	8.67663
26.91049	-11.03000	8.67663
26.91468	-11.03000	8.67663
26.91886	-11.03000	8.67663
26.92305	-11.03000	8.67663
26.92724	-11.03000	8.67663
26.93142	-11.03000	8.67663
26.93586	-11.03000	8.67663
26.94008	-11.03000	8.67663
26.94427	-11.00802	8.67663
26.94857	-11.03000	8.67663
26.95276	-11.00802	8.67663
26.95695	-11.00802	8.67663
26.96113	-11.00802	8.67663
26.96537	-11.00802	8.67663
26.96964	-11.00802	8.67663
26.97384	-11.00802	8.67663
26.97804	-10.98605	8.67663
26.98223	-11.00802	8.67663
26.98642	-10.98605	8.67663
26.99061	-11.00802	8.67663
26.99480	-11.00802	8.67663
26.99909	-11.00802	8.67663
27.00331	-10.98605	8.67663
27.00750	-11.00802	8.67663
27.01168	-10.98605	8.67663
27.01587	-10.98605	8.67663
27.02006	-10.98605	8.67663
27.02424	-10.98605	8.67663
27.02854	-10.98605	8.67663
27.03275	-11.00802	8.67663
27.03694	-10.98605	8.67663
27.04113	-11.00802	8.67663
27.04532	-11.00802	8.67663
27.04961	-10.98605	8.67663
27.05380	-11.00802	8.67663
27.05824	-10.98605	8.67663
27.06245	-11.00802	8.67663
27.06664	-11.00802	8.67663
27.07083	-11.00802	8.67663
27.07502	-10.98605	8.67663
27.07920	-11.00802	8.67663
27.08339	-10.98605	8.67663
27.08762	-11.00802	8.67663
27.09188	-11.00802	8.67663
27.09608	-10.98605	8.67663
27.10026	-10.98605	8.67663
27.10445	-11.00802	8.67663
27.10864	-11.00802	8.67663
27.11282	-11.00802	8.67663
27.11701	-11.00802	8.67663
27.12130	-11.00802	8.67663
27.12551	-11.00802	8.67663
27.12969	-11.00802	8.67663
27.13388	-11.00802	8.67663
27.13807	-11.00802	8.67663
27.14225	-11.00802	8.67663
27.14644	-11.00802	8.67663
27.15085	-11.00802	8.67663
27.15506	-11.03000	8.67663
27.15925	-11.00802	8.67663
27.16343	-11.03000	8.67663
27.16762	-11.00802	8.67663
27.17180	-11.03000	8.67663
27.17600	-11.03000	8.67663
27.18042	-11.03000	8.67663
27.18463	-11.00802	8.67663
27.18882	-11.03000	8.67663
27.19301	-11.03000	8.67663
27.19719	-11.03000	8.67663
27.20138	-11.03000	8.67663
27.20556	-11.03000	8.67663
27.20979	-11.03000	8.67663
27.21406	-11.05197	8.67663
27.21827	-11.03000	8.67663
27.22246	-11.05197	8.67663
27.22665	-11.05197	8.67663
27.23083	-11.05197	8.67663
27.23502	-11.05197	8.67663
27.23920	-11.05197	8.67663
27.24350	-11.05197	8.67663
27.24771	-11.05197	8.67663
27.25202	-11.05197	8.67663
27.25621	-11.05197	8.67663
27.26040	-11.07394	8.67663
27.26458	-11.05197	8.67663
27.26877	-11.07394	8.67663
27.27307	-11.07394	8.67663
27.27727	-11.07394	8.67663
27.28146	-11.07394	8.67663
27.28565	-11.07394	8.67663
27.28984	-11.07394	8.67663
27.29402	-11.07394	8.67663
27.29821	-11.09591	8.67663
27.30265	-11.09591	8.67663
27.30688	-11.09591	8.67663
27.31107	-11.09591	8.67663
27.31527	-11.09591	8.67663
27.31946	-11.09591	8.67663
27.32365	-11.09591	8.67663
27.32784	-11.11789	8.67663
27.33210	-11.11789	8.67663
27.33637	-11.09591	8.67663
27.34057	-11.11789	8.67663
27.34476	-11.11789	8.67663
27.34895	-11.09591	8.67663
27.35327	-11.11789	8.67663
27.35746	-11.11789	8.67663
27.36165	-11.11789	8.67663
27.36595	-11.13986	8.67663
27.37016	-11.13986	8.67663
27.37435	-11.11789	8.67663
27.37855	-11.13986	8.67663
27.38274	-11.11789	8.67663
27.38693	-11.13986	8.67663
27.39112	-11.13986	8.67663
27.39543	-11.13986	8.67663
27.39964	-11.13986	8.67663
27.40384	-11.16183	8.67663
27.40804	-11.16183	8.67663
27.41223	-11.16183	8.67663
27.41643	-11.16183	8.67663
27.42062	-11.16183	8.67663
27.42505	-11.18381	8.67663
27.42926	-11.18381	8.67663
27.43346	-11.16183	8.67663
27.43766	-11.18381	8.67663
27.44185	-11.18381	8.67663
27.44604	-11.18381	8.67663
27.45023	-11.18381	8.67663
27.45459	-11.18381	8.67663
27.45886	-11.18381	8.67663
27.46306	-11.20578	8.67663
27.46725	-11.20578	8.67663
27.47144	-11.18381	8.67663
27.47563	-11.20578	8.67663
27.47982	-11.20578	8.67663
27.48401	-11.20578	8.67663
27.48830	-11.20578	8.67663
27.49251	-11.20578	8.67663
27.49669	-11.20578	8.67663
27.50088	-11.22775	8.67663
27.50507	-11.20578	8.67663
27.50926	-11.22775	8.67663
27.51345	-11.20578	8.67663
27.51775	-11.22775	8.67663
27.52197	-11.22775	8.67663
27.52616	-11.22775	8.67663
27.53034	-11.22775	8.67663
27.53453	-11.22775	8.67663
27.53872	-11.22775	8.67663
27.54291	-11.22775	8.67663
27.54733	-11.22775	8.67663
27.55155	-11.22775	8.67663
27.55584	-11.22775	8.67663
27.56004	-11.24972	8.67663
27.56423	-11.22775	8.67663
27.56842	-11.24972	8.67663
27.57260	-11.24972	8.67663
27.57684	-11.22775	8.67663
27.58111	-11.24972	8.67663
27.58531	-11.24972	8.67663
27.58950	-11.24972	8.67663
27.59369	-11.24972	8.67663
27.59787	-11.24972	8.67663
27.60206	-11.24972	8.67663
27.60625	-11.24972	8.67663
27.61054	-11.24972	8.67663
27.61474	-11.22775	8.67663
27.61893	-11.24972	8.67663
27.62312	-11.24972	8.67663
27.62730	-11.24972	8.67663
27.63149	-11.24972	8.67663
27.63568	-11.24972	8.67663
27.63999	-11.24972	8.67663
27.64419	-11.24972	8.67663
27.64838	-11.22775	8.67663
27.65258	-11.22775	8.67663
27.65687	-11.24972	8.67663
27.66106	-11.24972	8.67663
27.66524	-11.24972	8.67663
27.66967	-11.22775	8.67663
27.67388	-11.22775	8.67663
27.67807	-11.22775	8.67663
27.68226	-11.24972	8.67663
27.68644	-11.24972	8.67663
27.69063	-11.24972	8.67663
27.69482	-11.22775	8.67663
27.69905	-11.24972	8.67663
27.70332	-11.24972	8.67663
27.70751	-11.24972	8.67663
27.71170	-11.22775	8.67663
27.71589	-11.24972	8.67663
27.72007	-11.22775	8.67663
27.72425	-11.24972	8.67663
27.72844	-11.22775	8.67663
27.73273	-11.22775	8.67663
27.73694	-11.22775	8.67663
27.74113	-11.22775	8.67663
27.74532	-11.22775	8.67663
27.74950	-11.24972	8.67663
27.75369	-11.22775	8.67663
27.75798	-11.22775	8.67663
27.76229	-11.22775	8.67663
27.76649	-11.22775	8.67663
27.77068	-11.22775	8.67663
27.77487	-11.22775	8.67663
27.77906	-11.22775	8.67663
27.78324	-11.22775	8.67663
27.78743	-11.22775	8.67663
27.79188	-11.22775	8.67663
27.79609	-11.20578	8.67663
27.80028	-11.22775	8.67663
27.80447	-11.20578	8.67663
27.80866	-11.20578	8.67663
27.81284	-11.22775	8.67663
27.81703	-11.20578	8.67663
27.82126	-11.22775	8.67663
27.82553	-11.20578	8.67663
27.82972	-11.20578	8.67663
27.83391	-11.20578	8.67663
27.83809	-11.22775	8.67663
27.84228	-11.20578	8.67663
27.84647	-11.22775	8.67663
27.85065	-11.20578	8.67663
27.85495	-11.20578	8.67663
27.85926	-11.22775	8.67663
27.86345	-11.22775	8.67663
27.86764	-11.20578	8.67663
27.87182	-11.22775	8.67663
27.87602	-11.20578	8.67663
27.88020	-11.22775	8.67663
27.88451	-11.20578	8.67663
27.88871	-11.20578	8.67663
27.89290	-11.22775	8.67663
27.89709	-11.22775	8.67663
27.90127	-11.20578	8.67663
27.90546	-11.22775	8.67663
27.90965	-11.20578	8.67663
27.91409	-11.22775	8.67663
27.91831	-11.22775	8.67663
27.92251	-11.22775	8.67663
27.92670	-11.22775	8.67663
27.93090	-11.22775	8.67663
27.93509	-11.20578	8.67663
27.93928	-11.20578	8.67663
27.94352	-11.22775	8.67663
27.94780	-11.22775	8.67663
27.95201	-11.22775	8.67663
27.95620	-11.22775	8.67663
27.96051	-11.22775	8.67663
27.96470	-11.22775	8.67663
27.96890	-11.22775	8.67663
27.97309	-11.22775	8.67663
27.97739	-11.24972	8.67663
27.98160	-11.22775	8.67663
27.98580	-11.22775	8.67663
27.98999	-11.24972	8.67663
27.99418	-11.22775	8.67663
27.99838	-11.22775	8.67663
28.00257	-11.24972	8.67663
28.00688	-11.24972	8.67663
28.01109	-11.24972	8.67663
28.01529	-11.24972	8.67663
28.01948	-11.24972	8.67663
28.02368	-11.24972	8.67663
28.02787	-11.27170	8.67663
28.03207	-11.24972	8.67663
28.03651	-11.27170	8.67663
28.04072	-11.27170	8.67663
28.04492	-11.27170	8.67663
28.04911	-11.27170	8.67663
28.05331	-11.27170	8.67663
28.05750	-11.27170	8.67663
28.06180	-11.29367	8.67663
28.06604	-11.29367	8.67663
28.07032	-11.29367	8.67663
28.07452	-11.29367	8.67663
28.07871	-11.29367	8.67663
28.08289	-11.29367	8.67663
28.08708	-11.31564	8.67663
28.09127	-11.31564	8.67663
28.09545	-11.31564	8.67663
28.09974	-11.31564	8.67663
28.10396	-11.31564	8.67663
28.10815	-11.33761	8.67663
28.11234	-11.33761	8.67663
28.11653	-11.33761	8.67663
28.12071	-11.35959	8.67663
28.12490	-11.35959	8.67663
28.12920	-11.35959	8.67663
28.13340	-11.35959	8.67663
28.13759	-11.35959	8.67663
28.14178	-11.35959	8.67663
28.14597	-11.38156	8.67663
28.15015	-11.38156	8.67663
28.15434	-11.38156	8.67663
28.15877	-11.40353	8.67663
28.16310	-11.40353	8.67663
28.16730	-11.40353	8.67663
28.17149	-11.42550	8.67663
28.17568	-11.40353	8.67663
28.17987	-11.40353	8.67663
28.18407	-11.44748	8.67663
28.18831	-11.42550	8.67663
28.19259	-11.44748	8.67663
28.19679	-11.44748	8.67663
28.20099	-11.44748	8.67663
28.20518	-11.46945	8.67663
28.20937	-11.46945	8.67663
28.21357	-11.46945	8.67663
28.21776	-11.49142	8.67663
28.22206	-11.49142	8.67663
28.22627	-11.51339	8.67663
28.23046	-11.51339	8.67663
28.23466	-11.51339	8.67663
28.23885	-11.51339	8.67663
28.24304	-11.53537	8.67663
28.24723	-11.51339	8.67663
28.25154	-11.53537	8.67663
28.25575	-11.53537	8.67663
28.25995	-11.53537	8.67663
28.26426	-11.55734	8.67663
28.26845	-11.57931	8.67663
28.27264	-11.55734	8.67663
28.27684	-11.60129	8.67663
28.28127	-11.57931	8.67663
28.28549	-11.57931	8.67663
28.28968	-11.57931	8.67663
28.29387	-11.60129	8.67663
28.29807	-11.60129	8.67663
28.30226	-11.62326	8.67663
28.30645	-11.62326	8.67663
28.31069	-11.64523	8.67663
28.31496	-11.64523	8.67663
28.31916	-11.64523	8.67663
28.32335	-11.64523	8.67663
28.32753	-11.66720	8.67663
28.33172	-11.66720	8.67663
28.33591	-11.66720	8.67663
28.34007	-11.68918	8.67663
28.34436	-11.68918	8.67663
28.34856	-11.71115	8.67663
28.35275	-11.71115	8.67663
28.35695	-11.71115	8.67663
28.36113	-11.71115	8.67663
28.36542	-11.73312	8.67663
28.36961	-11.73312	8.67663
28.37391	-11.75509	8.67663
28.37812	-11.75509	8.67663
28.38231	-11.75509	8.67663
28.38650	-11.77707	8.67663
28.39068	-11.77707	8.67663
28.39487	-11.77707	8.67663
28.39905	-11.79904	8.67663
28.40349	-11.79904	8.67663
28.40771	-11.82101	8.67663
28.41190	-11.82101	8.67663
28.41607	-11.82101	8.67663
28.42026	-11.82101	8.67663
28.42446	-11.84298	8.67663
28.42866	-11.84298	8.67663
28.43292	-11.86496	8.67663
28.43721	-11.86496	8.67663
28.44142	-11.86496	8.67663
28.44561	-11.88693	8.67663
28.44980	-11.88693	8.67663
28.45400	-11.88693	8.67663
28.45820	-11.90890	8.67663
28.46239	-11.90890	8.67663
28.46682	-11.93088	8.67663
28.47103	-11.93088	8.67663
28.47522	-11.93088	8.67663
28.47941	-11.93088	8.67663
28.48361	-11.95285	8.67663
28.48783	-11.95285	8.67663
28.49204	-11.97482	8.67663
28.49636	-11.95285	8.67663
28.50058	-11.95285	8.67663
28.50478	-11.97482	8.67663
28.50899	-11.99679	8.67663
28.51319	-11.99679	8.67663
28.51738	-12.01877	8.67663
28.52158	-12.01877	8.67663
28.52605	-12.01877	8.67663
28.53027	-12.04074	8.67663
28.53447	-12.01877	8.67663
28.53867	-12.04074	8.67663
28.54287	-12.06271	8.67663
28.54706	-12.04074	8.67663
28.55125	-12.06271	8.67663
28.55550	-12.06271	8.67663
28.55978	-12.06271	8.67663
28.56398	-12.06271	8.67663
28.56828	-12.08468	8.67663
28.57247	-12.08468	8.67663
28.57666	-12.08468	8.67663
28.58085	-12.10666	8.67663
28.58504	-12.10666	8.67663
28.58933	-12.12863	8.67663
28.59353	-12.12863	8.67663
28.59772	-12.12863	8.67663
28.60191	-12.12863	8.67663
28.60610	-12.15060	8.67663
28.61029	-12.15060	8.67663
28.61447	-12.17257	8.67663
28.61878	-12.17257	8.67663
28.62299	-12.19455	8.67663
28.62718	-12.19455	8.67663
28.63136	-12.19455	8.67663
28.63555	-12.19455	8.67663
28.63974	-12.19455	8.67663
28.64392	-12.19455	8.67663
28.64832	-12.21652	8.67663
28.65254	-12.21652	8.67663
28.65674	-12.21652	8.67663
28.66093	-12.23849	8.67663
28.66513	-12.23849	8.67663
28.66943	-12.23849	8.67663
28.67363	-12.26047	8.67663
28.67788	-12.26047	8.67663
28.68215	-12.26047	8.67663
28.68636	-12.28244	8.67663
28.69055	-12.28244	8.67663
28.69475	-12.28244	8.67663
28.69894	-12.28244	8.67663
28.70313	-12.28244	8.67663
28.70733	-12.28244	8.67663
28.71163	-12.30441	8.67663
28.71584	-12.30441	8.67663
28.72004	-12.32638	8.67663
28.72424	-12.32638	8.67663
28.72843	-12.32638	8.67663
28.73262	-12.34836	8.67663
28.73682	-12.34836	8.67663
28.74113	-12.34836	8.67663
28.74534	-12.34836	8.67663
28.74954	-12.34836	8.67663
28.75373	-12.37033	8.67663
28.75792	-12.37033	8.67663
28.76212	-12.37033	8.67663
28.76631	-12.37033	8.67663
28.77087	-12.39230	8.67663
28.77508	-12.39230	8.67663
28.77928	-12.41427	8.67663
28.78347	-12.41427	8.67663
28.78766	-12.41427	8.67663
28.79185	-12.41427	8.67663
28.79604	-12.43625	8.67663
28.80028	-12.41427	8.67663
28.80455	-12.43625	8.67663
28.80875	-12.43625	8.67663
28.81294	-12.45822	8.67663
28.81712	-12.45822	8.67663
28.82131	-12.45822	8.67663
28.82550	-12.45822	8.67663
28.82969	-12.48019	8.67663
28.83398	-12.48019	8.67663
28.83818	-12.48019	8.67663
28.84237	-12.48019	8.67663
28.84655	-12.50216	8.67663
28.85074	-12.50216	8.67663
28.85493	-12.50216	8.67663
28.85912	-12.52414	8.67663
28.86342	-12.52414	8.67663
28.86763	-12.52414	8.67663
28.87194	-12.52414	8.67663
28.87612	-12.54611	8.67663
28.88031	-12.54611	8.67663
28.88450	-12.54611	8.67663
28.88868	-12.56808	8.67663
28.89310	-12.56808	8.67663
28.89732	-12.56808	8.67663
28.90151	-12.59006	8.67663
28.90569	-12.56808	8.67663
28.90988	-12.59006	8.67663
28.91407	-12.61203	8.67663
28.91825	-12.61203	8.67663
28.92248	-12.61203	8.67663
28.92674	-12.61203	8.67663
28.93094	-12.61203	8.67663
28.93512	-12.63400	8.67663
28.93931	-12.63400	8.67663
28.94350	-12.65597	8.67663
28.94768	-12.65597	8.67663
28.95187	-12.65597	8.67663
28.95617	-12.65597	8.67663
28.96037	-12.67795	8.67663
28.96456	-12.67795	8.67663
28.96875	-12.67795	8.67663
28.97305	-12.69992	8.67663
28.97724	-12.69992	8.67663
28.98143	-12.69992	8.67663
28.98573	-12.69992	8.67663
28.98994	-12.69992	8.67663
28.99412	-12.72189	8.67663
28.99831	-12.72189	8.67663
29.00250	-12.72189	8.67663
29.00668	-12.72189	8.67663
29.01087	-12.74386	8.67663
29.01531	-12.74386	8.67663
29.01953	-12.76584	8.67663
29.02372	-12.76584	8.67663
29.02790	-12.76584	8.67663
29.03206	-12.76584	8.67663
29.03625	-12.78781	8.67663
29.04044	-12.78781	8.67663
29.04467	-12.80978	8.67663
29.04894	-12.78781	8.67663
29.05314	-12.80978	8.67663
29.05733	-12.80978	8.67663
29.06152	-12.80978	8.67663
29.06570	-12.83175	8.67663
29.06989	-12.83175	8.67663
29.07418	-12.83175	8.67663
29.07848	-12.85373	8.67663
29.08268	-12.85373	8.67663
29.08687	-12.85373	8.67663
29.09106	-12.87570	8.67663
29.09525	-12.87570	8.67663
29.09943	-12.87570	8.67663
29.10362	-12.87570	8.67663
29.10795	-12.89767	8.67663
29.11215	-12.87570	8.67663
29.11634	-12.91964	8.67663
29.12053	-12.89767	8.67663
29.12471	-12.91964	8.67663
29.12890	-12.91964	8.67663
29.13308	-12.91964	8.67663
29.13751	-12.91964	8.67663
29.14172	-12.94162	8.67663
29.14591	-12.94162	8.67663
29.15010	-12.96359	8.67663
29.15428	-12.96359	8.67663
29.15847	-12.96359	8.67663
29.16266	-12.96359	8.67663
29.16689	-12.96359	8.67663
29.17116	-12.98556	8.67663
29.17546	-13.00754	8.67663
29.17964	-12.98556	8.67663
29.18383	-12.98556	8.67663
29.18802	-13.00754	8.67663
29.19221	-13.00754	8.67663
29.19640	-13.00754	8.67663
29.20069	-13.02951	8.67663
29.20489	-13.00754	8.67663
29.20908	-13.00754	8.67663
29.21326	-13.02951	8.67663
29.21745	-13.05148	8.67663
29.22164	-13.02951	8.67663
29.22582	-13.05148	8.67663
29.23012	-13.05148	8.67663
29.23434	-13.07345	8.67663
29.23853	-13.07345	8.67663
29.24272	-13.05148	8.67663
29.24691	-13.07345	8.67663
29.25109	-13.07345	8.67663
29.25528	-13.07345	8.67663
29.25971	-13.09543	8.67663
29.26393	-13.09543	8.67663
29.26813	-13.09543	8.67663
29.27231	-13.11740	8.67663
29.27661	-13.11740	8.67663
29.28079	-13.11740	8.67663
29.28498	-13.13937	8.67663
29.28921	-13.13937	8.67663
29.29349	-13.11740	8.67663
29.29768	-13.13937	8.67663
29.30187	-13.13937	8.67663
29.30606	-13.16134	8.67663
29.31024	-13.16134	8.67663
29.31443	-13.16134	8.67663
29.31862	-13.16134	8.67663
29.32291	-13.18332	8.67663
29.32711	-13.16134	8.67663
29.33130	-13.18332	8.67663
29.33548	-13.18332	8.67663
29.33967	-13.18332	8.67663
29.34386	-13.18332	8.67663
29.34805	-13.20529	8.67663
29.35235	-13.20529	8.67663
29.35656	-13.22726	8.67663
29.36075	-13.20529	8.67663
29.36493	-13.20529	8.67663
29.36912	-13.22726	8.67663
29.37330	-13.22726	8.67663
29.37760	-13.22726	8.67663
29.38204	-13.24923	8.67663
29.38625	-13.22726	8.67663
29.39044	-13.22726	8.67663
29.39463	-13.24923	8.67663
29.39881	-13.24923	8.67663
29.40300	-13.24923	8.67663
29.40718	-13.27121	8.67663
29.41142	-13.27121	8.67663
29.41568	-13.29318	8.67663
29.41989	-13.29318	8.67663
29.42407	-13.27121	8.67663
29.42825	-13.29318	8.67663
29.43244	-13.29318	8.67663
29.43664	-13.29318	8.67663
29.44084	-13.29318	8.67663
29.44515	-13.29318	8.67663
29.44936	-13.29318	8.67663
29.45355	-13.31515	8.67663
29.45774	-13.31515	8.67663
29.46192	-13.31515	8.67663
29.46611	-13.33713	8.67663
29.47030	-13.33713	8.67663
29.47460	-13.31515	8.67663
29.47891	-13.33713	8.67663
29.48310	-13.31515	8.67663
29.48729	-13.33713	8.67663
29.49148	-13.33713	8.67663
29.49569	-13.33713	8.67663
29.49990	-13.33713	8.67663
29.50432	-13.35910	8.67663
29.50857	-13.33713	8.67663
29.51277	-13.35910	8.67663
29.51697	-13.35910	8.67663
29.52116	-13.35910	8.67663
29.52535	-13.38107	8.67663
29.52953	-13.38107	8.67663
29.53379	-13.35910	8.67663
29.53807	-13.38107	8.67663
29.54227	-13.38107	8.67663
29.54645	-13.40304	8.67663
29.55064	-13.38107	8.67663
29.55483	-13.38107	8.67663
29.55902	-13.40304	8.67663
29.56321	-13.40304	8.67663
29.56758	-13.38107	8.67663
29.57181	-13.40304	8.67663
29.57601	-13.40304	8.67663
29.58031	-13.40304	8.67663
29.58450	-13.40304	8.67663
29.58869	-13.40304	8.67663
29.59287	-13.40304	8.67663
29.59718	-13.40304	8.67663
29.60140	-13.40304	8.67663
29.60559	-13.40304	8.67663
29.60978	-13.40304	8.67663
29.61397	-13.40304	8.67663
29.61816	-13.42502	8.67663
29.62234	-13.42502	8.67663
29.62678	-13.40304	8.67663
29.63099	-13.40304	8.67663
29.63519	-13.42502	8.67663
29.63938	-13.40304	8.67663
29.64357	-13.42502	8.67663
29.64775	-13.42502	8.67663
29.65195	-13.40304	8.67663
29.65619	-13.42502	8.67663
29.66046	-13.42502	8.67663
29.66466	-13.40304	8.67663
29.66885	-13.42502	8.67663
29.67304	-13.42502	8.67663
29.67722	-13.42502	8.67663
29.68152	-13.42502	8.67663
29.68570	-13.42502	8.67663
29.69000	-13.42502	8.67663
29.69420	-13.42502	8.67663
29.69839	-13.42502	8.67663
29.70258	-13.42502	8.67663
29.70677	-13.42502	8.67663
29.71096	-13.42502	8.67663
29.71514	-13.42502	8.67663
29.71944	-13.42502	8.67663
29.72365	-13.40304	8.67663
29.72784	-13.42502	8.67663
29.73204	-13.40304	8.67663
29.73622	-13.40304	8.67663
29.74041	-13.40304	8.67663
29.74460	-13.42502	8.67663
29.74902	-13.40304	8.67663
29.75324	-13.42502	8.67663
29.75743	-13.40304	8.67663
29.76162	-13.42502	8.67663
29.76581	-13.42502	8.67663
29.76999	-13.40304	8.67663
29.77418	-13.40304	8.67663
29.77842	-13.42502	8.67663
29.78280	-13.40304	8.67663
29.78700	-13.40304	8.67663
29.79118	-13.40304	8.67663
29.79537	-13.40304	8.67663
29.79956	-13.40304	8.67663
29.80374	-13.40304	8.67663
29.80794	-13.40304	8.67663
29.81223	-13.40304	8.67663
29.81643	-13.40304	8.67663
29.82062	-13.40304	8.67663
29.82481	-13.40304	8.67663
29.82900	-13.38107	8.67663
29.83318	-13.38107	8.67663
29.83737	-13.40304	8.67663
29.84166	-13.38107	8.67663
29.84587	-13.38107	8.67663
29.85006	-13.38107	8.67663
29.85425	-13.38107	8.67663
29.85843	-13.38107	8.67663
29.86262	-13.38107	8.67663
29.86681	-13.38107	8.67663
29.87125	-13.35910	8.67663
29.87547	-13.38107	8.67663
29.87966	-13.35910	8.67663
29.88397	-13.38107	8.67663
29.88815	-13.35910	8.67663
29.89234	-13.35910	8.67663
29.89652	-13.35910	8.67663
29.90075	-13.35910	8.67663
29.90502	-13.35910	8.67663
29.90921	-13.35910	8.67663
29.91340	-13.35910	8.67663
29.91759	-13.33713	8.67663
29.92178	-13.33713	8.67663
29.92596	-13.33713	8.67663
29.93015	-13.33713	8.67663
29.93444	-13.35910	8.67663
29.93864	-13.33713	8.67663
29.94283	-13.33713	8.67663
29.94702	-13.33713	8.67663
29.95120	-13.33713	8.67663
29.95539	-13.31515	8.67663
29.95958	-13.31515	8.67663
29.96387	-13.31515	8.67663
29.96810	-13.31515	8.67663
29.97229	-13.31515	8.67663
29.97648	-13.29318	8.67663
29.98066	-13.31515	8.67663
29.98495	-13.31515	8.67663
29.98914	-13.31515	8.67663
29.99356	-13.29318	8.67663
29.99778	-13.29318	8.67663
