Time (s)   roll (deg)   Delta
0.00073	-13.27121	11.27051
0.00496	-13.29318	11.27051
0.00916	-13.27121	11.27051
0.01336	-13.27121	11.27051
0.01755	-13.27121	11.27051
0.02173	-13.27121	11.27051
0.02592	-13.24923	11.27051
0.03025	-13.27121	11.27051
0.03451	-13.24923	11.27051
0.03874	-13.27121	11.27051
0.04292	-13.27121	11.27051
0.04710	-13.24923	11.27051
0.05127	-13.24923	11.27051
0.05545	-13.24923	11.27051
0.05968	-13.24923	11.27051
0.06394	-13.24923	11.27051
0.06812	-13.24923	11.27051
0.07230	-13.24923	11.27051
0.07647	-13.24923	11.27051
0.08065	-13.24923	11.27051
0.08483	-13.22726	11.27051
0.08900	-13.24923	11.27051
0.09328	-13.24923	11.27051
0.09747	-13.22726	11.27051
0.10174	-13.22726	11.27051
0.10592	-13.24923	11.27051
0.11010	-13.22726	11.27051
0.11427	-13.22726	11.27051
0.11845	-13.22726	11.27051
0.12274	-13.22726	11.27051
0.12694	-13.24923	11.27051
0.13111	-13.22726	11.27051
0.13529	-13.22726	11.27051
0.13949	-13.24923	11.27051
0.14368	-13.24923	11.27051
0.14787	-13.24923	11.27051
0.15226	-13.24923	11.27051
0.15648	-13.24923	11.27051
0.16068	-13.24923	11.27051
0.16487	-13.24923	11.27051
0.16906	-13.24923	11.27051
0.17325	-13.24923	11.27051
0.17745	-13.24923	11.27051
0.18168	-13.24923	11.27051
0.18596	-13.27121	11.27051
0.19022	-13.27121	11.27051
0.19445	-13.27121	11.27051
0.19866	-13.27121	11.27051
0.20297	-13.27121	11.27051
0.20716	-13.27121	11.27051
0.21136	-13.29318	11.27051
0.21568	-13.29318	11.27051
0.21989	-13.29318	11.27051
0.22409	-13.29318	11.27051
0.22828	-13.29318	11.27051
0.23247	-13.31515	11.27051
0.23666	-13.31515	11.27051
0.24087	-13.31515	11.27051
0.24518	-13.33713	11.27051
0.24939	-13.33713	11.27051
0.25358	-13.33713	11.27051
0.25777	-13.33713	11.27051
0.26196	-13.35910	11.27051
0.26614	-13.35910	11.27051
0.27033	-13.35910	11.27051
0.27466	-13.35910	11.27051
0.27889	-13.38107	11.27051
0.28308	-13.38107	11.27051
0.28727	-13.38107	11.27051
0.29146	-13.40304	11.27051
0.29567	-13.42502	11.27051
0.29986	-13.42502	11.27051
0.30422	-13.42502	11.27051
0.30848	-13.42502	11.27051
0.31268	-13.44699	11.27051
0.31686	-13.44699	11.27051
0.32105	-13.46896	11.27051
0.32523	-13.46896	11.27051
0.32941	-13.49093	11.27051
0.33360	-13.49093	11.27051
0.33789	-13.49093	11.27051
0.34210	-13.51291	11.27051
0.34629	-13.51291	11.27051
0.35047	-13.55685	11.27051
0.35465	-13.55685	11.27051
0.35884	-13.55685	11.27051
0.36302	-13.55685	11.27051
0.36732	-13.57882	11.27051
0.37153	-13.60080	11.27051
0.37568	-13.62277	11.27051
0.37986	-13.62277	11.27051
0.38405	-13.62277	11.27051
0.38823	-13.64474	11.27051
0.39242	-13.66672	11.27051
0.39673	-13.68869	11.27051
0.40095	-13.68869	11.27051
0.40525	-13.71066	11.27051
0.40944	-13.71066	11.27051
0.41364	-13.73263	11.27051
0.41784	-13.73263	11.27051
0.42202	-13.75461	11.27051
0.42626	-13.77658	11.27051
0.43054	-13.77658	11.27051
0.43474	-13.79855	11.27051
0.43893	-13.79855	11.27051
0.44311	-13.82052	11.27051
0.44730	-13.84250	11.27051
0.45149	-13.84250	11.27051
0.45567	-13.86447	11.27051
0.45997	-13.86447	11.27051
0.46418	-13.88644	11.27051
0.46836	-13.90841	11.27051
0.47255	-13.93039	11.27051
0.47673	-13.93039	11.27051
0.48092	-13.95236	11.27051
0.48512	-13.97433	11.27051
0.48943	-13.97433	11.27051
0.49365	-13.99631	11.27051
0.49784	-14.01828	11.27051
0.50202	-14.01828	11.27051
0.50631	-14.04025	11.27051
0.51050	-14.06222	11.27051
0.51468	-14.06222	11.27051
0.51898	-14.08420	11.27051
0.52323	-14.10617	11.27051
0.52743	-14.10617	11.27051
0.53164	-14.15011	11.27051
0.53583	-14.15011	11.27051
0.54002	-14.15011	11.27051
0.54421	-14.17209	11.27051
0.54846	-14.19406	11.27051
0.55273	-14.21603	11.27051
0.55692	-14.23800	11.27051
0.56111	-14.23800	11.27051
0.56530	-14.25998	11.27051
0.56948	-14.25998	11.27051
0.57366	-14.28195	11.27051
0.57785	-14.28195	11.27051
0.58214	-14.30392	11.27051
0.58634	-14.32589	11.27051
0.59052	-14.34787	11.27051
0.59471	-14.34787	11.27051
0.59889	-14.36984	11.27051
0.60308	-14.36984	11.27051
0.60737	-14.39181	11.27051
0.61168	-14.41379	11.27051
0.61589	-14.43576	11.27051
0.62007	-14.43576	11.27051
0.62426	-14.45773	11.27051
0.62844	-14.47970	11.27051
0.63263	-14.47970	11.27051
0.63681	-14.50168	11.27051
0.64116	-14.50168	11.27051
0.64539	-14.52365	11.27051
0.64958	-14.54562	11.27051
0.65376	-14.56759	11.27051
0.65795	-14.56759	11.27051
0.66213	-14.58957	11.27051
0.66632	-14.61154	11.27051
0.67055	-14.61154	11.27051
0.67482	-14.63351	11.27051
0.67902	-14.65548	11.27051
0.68320	-14.65548	11.27051
0.68739	-14.67746	11.27051
0.69158	-14.67746	11.27051
0.69576	-14.69943	11.27051
0.69994	-14.69943	11.27051
0.70423	-14.72140	11.27051
0.70854	-14.74338	11.27051
0.71273	-14.76535	11.27051
0.71691	-14.78732	11.27051
0.72110	-14.78732	11.27051
0.72528	-14.80929	11.27051
0.72946	-14.80929	11.27051
0.73376	-14.83127	11.27051
0.73797	-14.85324	11.27051
0.74216	-14.87521	11.27051
0.74635	-14.87521	11.27051
0.75054	-14.87521	11.27051
0.75472	-14.89718	11.27051
0.75890	-14.91916	11.27051
0.76324	-14.94113	11.27051
0.76747	-14.96310	11.27051
0.77167	-14.98507	11.27051
0.77586	-14.98507	11.27051
0.78005	-14.98507	11.27051
0.78424	-15.00705	11.27051
0.78842	-15.00705	11.27051
0.79266	-15.02902	11.27051
0.79692	-15.05099	11.27051
0.80112	-15.05099	11.27051
0.80530	-15.07297	11.27051
0.80959	-15.07297	11.27051
0.81377	-15.09494	11.27051
0.81795	-15.11691	11.27051
0.82214	-15.13888	11.27051
0.82643	-15.13888	11.27051
0.83063	-15.13888	11.27051
0.83481	-15.16086	11.27051
0.83899	-15.16086	11.27051
0.84318	-15.18283	11.27051
0.84737	-15.20480	11.27051
0.85156	-15.22677	11.27051
0.85586	-15.22677	11.27051
0.86006	-15.24875	11.27051
0.86425	-15.24875	11.27051
0.86843	-15.27072	11.27051
0.87262	-15.27072	11.27051
0.87680	-15.27072	11.27051
0.88099	-15.29269	11.27051
0.88527	-15.29269	11.27051
0.88952	-15.31466	11.27051
0.89372	-15.33664	11.27051
0.89791	-15.33664	11.27051
0.90210	-15.33664	11.27051
0.90628	-15.35861	11.27051
0.91057	-15.38058	11.27051
0.91480	-15.38058	11.27051
0.91906	-15.40256	11.27051
0.92325	-15.42453	11.27051
0.92744	-15.42453	11.27051
0.93163	-15.42453	11.27051
0.93582	-15.44650	11.27051
0.94000	-15.44650	11.27051
0.94419	-15.44650	11.27051
0.94847	-15.46847	11.27051
0.95267	-15.46847	11.27051
0.95686	-15.49045	11.27051
0.96105	-15.49045	11.27051
0.96523	-15.49045	11.27051
0.96942	-15.51242	11.27051
0.97360	-15.53439	11.27051
0.97790	-15.53439	11.27051
0.98211	-15.53439	11.27051
0.98629	-15.55636	11.27051
0.99048	-15.55636	11.27051
0.99466	-15.55636	11.27051
0.99885	-15.57834	11.27051
1.00304	-15.57834	11.27051
1.00736	-15.60031	11.27051
1.01172	-15.60031	11.27051
1.01591	-15.60031	11.27051
1.02010	-15.62228	11.27051
1.02429	-15.62228	11.27051
1.02848	-15.62228	11.27051
1.03267	-15.64425	11.27051
1.03691	-15.64425	11.27051
1.04119	-15.64425	11.27051
1.04538	-15.64425	11.27051
1.04957	-15.64425	11.27051
1.05375	-15.66623	11.27051
1.05793	-15.66623	11.27051
1.06212	-15.66623	11.27051
1.06630	-15.68820	11.27051
1.07058	-15.68820	11.27051
1.07478	-15.68820	11.27051
1.07897	-15.71017	11.27051
1.08316	-15.68820	11.27051
1.08734	-15.71017	11.27051
1.09152	-15.71017	11.27051
1.09567	-15.71017	11.27051
1.09997	-15.73214	11.27051
1.10417	-15.73214	11.27051
1.10836	-15.73214	11.27051
1.11265	-15.73214	11.27051
1.11683	-15.73214	11.27051
1.12102	-15.73214	11.27051
1.12520	-15.75412	11.27051
1.12954	-15.75412	11.27051
1.13377	-15.75412	11.27051
1.13796	-15.75412	11.27051
1.14215	-15.77609	11.27051
1.14633	-15.75412	11.27051
1.15052	-15.77609	11.27051
1.15471	-15.77609	11.27051
1.15893	-15.77609	11.27051
1.16321	-15.77609	11.27051
1.16740	-15.77609	11.27051
1.17160	-15.77609	11.27051
1.17578	-15.77609	11.27051
1.17997	-15.79806	11.27051
1.18415	-15.79806	11.27051
1.18833	-15.79806	11.27051
1.19262	-15.79806	11.27051
1.19683	-15.79806	11.27051
1.20102	-15.79806	11.27051
1.20520	-15.79806	11.27051
1.20939	-15.79806	11.27051
1.21367	-15.79806	11.27051
1.21785	-15.79806	11.27051
1.22216	-15.79806	11.27051
1.22637	-15.79806	11.27051
1.23056	-15.79806	11.27051
1.23474	-15.82004	11.27051
1.23893	-15.79806	11.27051
1.24311	-15.79806	11.27051
1.24730	-15.82004	11.27051
1.25165	-15.82004	11.27051
1.25589	-15.82004	11.27051
1.26008	-15.82004	11.27051
1.26427	-15.82004	11.27051
1.26846	-15.82004	11.27051
1.27264	-15.82004	11.27051
1.27683	-15.79806	11.27051
1.28107	-15.82004	11.27051
1.28534	-15.79806	11.27051
1.28954	-15.79806	11.27051
1.29372	-15.82004	11.27051
1.29791	-15.79806	11.27051
1.30209	-15.79806	11.27051
1.30627	-15.82004	11.27051
1.31046	-15.82004	11.27051
1.31485	-15.79806	11.27051
1.31905	-15.79806	11.27051
1.32324	-15.79806	11.27051
1.32743	-15.79806	11.27051
1.33163	-15.79806	11.27051
1.33581	-15.79806	11.27051
1.34000	-15.79806	11.27051
1.34430	-15.79806	11.27051
1.34850	-15.79806	11.27051
1.35269	-15.79806	11.27051
1.35687	-15.79806	11.27051
1.36106	-15.79806	11.27051
1.36524	-15.79806	11.27051
1.36943	-15.79806	11.27051
1.37375	-15.79806	11.27051
1.37797	-15.79806	11.27051
1.38216	-15.77609	11.27051
1.38635	-15.77609	11.27051
1.39053	-15.79806	11.27051
1.39472	-15.77609	11.27051
1.39890	-15.77609	11.27051
1.40313	-15.77609	11.27051
1.40741	-15.77609	11.27051
1.41163	-15.77609	11.27051
1.41593	-15.75412	11.27051
1.42011	-15.77609	11.27051
1.42430	-15.75412	11.27051
1.42848	-15.75412	11.27051
1.43266	-15.75412	11.27051
1.43696	-15.75412	11.27051
1.44116	-15.75412	11.27051
1.44535	-15.75412	11.27051
1.44954	-15.75412	11.27051
1.45374	-15.75412	11.27051
1.45793	-15.75412	11.27051
1.46211	-15.75412	11.27051
1.46642	-15.73214	11.27051
1.47063	-15.73214	11.27051
1.47482	-15.73214	11.27051
1.47901	-15.73214	11.27051
1.48320	-15.73214	11.27051
1.48740	-15.73214	11.27051
1.49159	-15.73214	11.27051
1.49592	-15.71017	11.27051
1.50018	-15.71017	11.27051
1.50437	-15.71017	11.27051
1.50857	-15.71017	11.27051
1.51276	-15.71017	11.27051
1.51706	-15.71017	11.27051
1.52125	-15.71017	11.27051
1.52550	-15.68820	11.27051
1.52978	-15.68820	11.27051
1.53398	-15.68820	11.27051
1.53818	-15.68820	11.27051
1.54237	-15.68820	11.27051
1.54657	-15.68820	11.27051
1.55076	-15.68820	11.27051
1.55496	-15.66623	11.27051
1.55926	-15.66623	11.27051
1.56346	-15.66623	11.27051
1.56765	-15.66623	11.27051
1.57184	-15.66623	11.27051
1.57602	-15.66623	11.27051
1.58021	-15.64425	11.27051
1.58439	-15.64425	11.27051
1.58869	-15.64425	11.27051
1.59290	-15.64425	11.27051
1.59709	-15.64425	11.27051
1.60127	-15.64425	11.27051
1.60546	-15.62228	11.27051
1.60964	-15.62228	11.27051
1.61383	-15.62228	11.27051
1.61834	-15.62228	11.27051
1.62255	-15.62228	11.27051
1.62674	-15.62228	11.27051
1.63093	-15.62228	11.27051
1.63512	-15.62228	11.27051
1.63931	-15.62228	11.27051
1.64350	-15.60031	11.27051
1.64773	-15.60031	11.27051
1.65200	-15.60031	11.27051
1.65619	-15.60031	11.27051
1.66038	-15.57834	11.27051
1.66456	-15.57834	11.27051
1.66875	-15.57834	11.27051
1.67293	-15.57834	11.27051
1.67712	-15.57834	11.27051
1.68140	-15.57834	11.27051
1.68560	-15.57834	11.27051
1.68979	-15.57834	11.27051
1.69397	-15.55636	11.27051
1.69816	-15.55636	11.27051
1.70234	-15.55636	11.27051
1.70652	-15.55636	11.27051
1.71081	-15.53439	11.27051
1.71502	-15.53439	11.27051
1.71931	-15.53439	11.27051
1.72349	-15.53439	11.27051
1.72767	-15.51242	11.27051
1.73186	-15.51242	11.27051
1.73604	-15.51242	11.27051
1.74036	-15.51242	11.27051
1.74458	-15.51242	11.27051
1.74877	-15.49045	11.27051
1.75296	-15.49045	11.27051
1.75715	-15.46847	11.27051
1.76133	-15.46847	11.27051
1.76552	-15.46847	11.27051
1.76974	-15.46847	11.27051
1.77401	-15.46847	11.27051
1.77821	-15.46847	11.27051
1.78239	-15.46847	11.27051
1.78658	-15.44650	11.27051
1.79076	-15.44650	11.27051
1.79494	-15.44650	11.27051
1.79913	-15.42453	11.27051
1.80342	-15.42453	11.27051
1.80763	-15.42453	11.27051
1.81181	-15.40256	11.27051
1.81600	-15.42453	11.27051
1.82029	-15.40256	11.27051
1.82447	-15.40256	11.27051
1.82865	-15.40256	11.27051
1.83295	-15.38058	11.27051
1.83715	-15.38058	11.27051
1.84134	-15.38058	11.27051
1.84553	-15.38058	11.27051
1.84971	-15.38058	11.27051
1.85390	-15.38058	11.27051
1.85808	-15.35861	11.27051
1.86243	-15.35861	11.27051
1.86666	-15.35861	11.27051
1.87085	-15.33664	11.27051
1.87503	-15.33664	11.27051
1.87922	-15.33664	11.27051
1.88340	-15.33664	11.27051
1.88760	-15.31466	11.27051
1.89183	-15.31466	11.27051
1.89609	-15.31466	11.27051
1.90029	-15.31466	11.27051
1.90447	-15.29269	11.27051
1.90866	-15.29269	11.27051
1.91284	-15.29269	11.27051
1.91703	-15.27072	11.27051
1.92131	-15.27072	11.27051
1.92560	-15.27072	11.27051
1.92980	-15.27072	11.27051
1.93398	-15.27072	11.27051
1.93816	-15.24875	11.27051
1.94235	-15.24875	11.27051
1.94653	-15.24875	11.27051
1.95071	-15.24875	11.27051
1.95501	-15.22677	11.27051
1.95924	-15.22677	11.27051
1.96343	-15.22677	11.27051
1.96764	-15.22677	11.27051
1.97182	-15.22677	11.27051
1.97602	-15.20480	11.27051
1.98021	-15.20480	11.27051
1.98451	-15.20480	11.27051
1.98875	-15.20480	11.27051
1.99296	-15.20480	11.27051
1.99715	-15.20480	11.27051
2.00134	-15.20480	11.27051
2.00553	-15.18283	11.27051
2.00971	-15.18283	11.27051
2.01394	-15.18283	11.27051
2.01822	-15.18283	11.27051
2.02252	-15.16086	11.27051
2.02671	-15.16086	11.27051
2.03089	-15.16086	11.27051
2.03508	-15.16086	11.27051
2.03927	-15.13888	11.27051
2.04345	-15.13888	11.27051
2.04776	-15.13888	11.27051
2.05196	-15.11691	11.27051
2.05615	-15.11691	11.27051
2.06034	-15.11691	11.27051
2.06453	-15.11691	11.27051
2.06872	-15.11691	11.27051
2.07290	-15.11691	11.27051
2.07720	-15.09494	11.27051
2.08141	-15.09494	11.27051
2.08559	-15.09494	11.27051
2.08978	-15.09494	11.27051
2.09396	-15.09494	11.27051
2.09815	-15.09494	11.27051
2.10234	-15.07297	11.27051
2.10667	-15.07297	11.27051
2.11091	-15.07297	11.27051
2.11510	-15.07297	11.27051
2.11929	-15.05099	11.27051
2.12361	-15.07297	11.27051
2.12779	-15.05099	11.27051
2.13198	-15.05099	11.27051
2.13621	-15.05099	11.27051
2.14049	-15.05099	11.27051
2.14469	-15.05099	11.27051
2.14887	-15.02902	11.27051
2.15306	-15.02902	11.27051
2.15724	-15.02902	11.27051
2.16143	-15.02902	11.27051
2.16561	-15.02902	11.27051
2.16990	-15.02902	11.27051
2.17410	-15.00705	11.27051
2.17829	-15.00705	11.27051
2.18247	-15.00705	11.27051
2.18666	-15.00705	11.27051
2.19084	-15.00705	11.27051
2.19503	-15.00705	11.27051
2.19933	-14.98507	11.27051
2.20355	-14.98507	11.27051
2.20774	-14.98507	11.27051
2.21195	-14.98507	11.27051
2.21614	-14.98507	11.27051
2.22033	-14.98507	11.27051
2.22462	-14.96310	11.27051
2.22948	-14.96310	11.27051
2.23373	-14.96310	11.27051
2.23793	-14.96310	11.27051
2.24214	-14.96310	11.27051
2.24633	-14.96310	11.27051
2.25052	-14.96310	11.27051
2.25471	-14.94113	11.27051
2.25896	-14.94113	11.27051
2.26329	-14.94113	11.27051
2.26750	-14.94113	11.27051
2.27168	-14.94113	11.27051
2.27589	-14.91916	11.27051
2.28009	-14.94113	11.27051
2.28427	-14.91916	11.27051
2.28846	-14.91916	11.27051
2.29281	-14.91916	11.27051
2.29702	-14.91916	11.27051
2.30121	-14.91916	11.27051
2.30539	-14.91916	11.27051
2.30960	-14.91916	11.27051
2.31380	-14.91916	11.27051
2.31799	-14.91916	11.27051
2.32234	-14.89718	11.27051
2.32670	-14.89718	11.27051
2.33089	-14.89718	11.27051
2.33508	-14.89718	11.27051
2.33926	-14.89718	11.27051
2.34345	-14.89718	11.27051
2.34764	-14.89718	11.27051
2.35244	-14.89718	11.27051
2.35669	-14.89718	11.27051
2.36092	-14.89718	11.27051
2.36511	-14.87521	11.27051
2.36930	-14.87521	11.27051
2.37348	-14.89718	11.27051
2.37767	-14.87521	11.27051
2.38191	-14.87521	11.27051
2.38624	-14.87521	11.27051
2.39044	-14.87521	11.27051
2.39465	-14.87521	11.27051
2.39884	-14.87521	11.27051
2.40302	-14.87521	11.27051
2.40721	-14.87521	11.27051
2.41140	-14.85324	11.27051
2.41577	-14.87521	11.27051
2.41998	-14.87521	11.27051
2.42417	-14.85324	11.27051
2.42847	-14.85324	11.27051
2.43266	-14.85324	11.27051
2.43685	-14.87521	11.27051
2.44103	-14.85324	11.27051
2.44539	-14.85324	11.27051
2.44960	-14.85324	11.27051
2.45379	-14.85324	11.27051
2.45802	-14.85324	11.27051
2.46224	-14.85324	11.27051
2.46643	-14.85324	11.27051
2.47062	-14.85324	11.27051
2.47540	-14.85324	11.27051
2.47966	-14.85324	11.27051
2.48388	-14.85324	11.27051
2.48809	-14.85324	11.27051
2.49230	-14.85324	11.27051
2.49651	-14.85324	11.27051
2.50072	-14.85324	11.27051
2.50597	-14.85324	11.27051
2.51028	-14.85324	11.27051
2.51450	-14.85324	11.27051
2.51872	-14.85324	11.27051
2.52293	-14.85324	11.27051
2.52714	-14.85324	11.27051
2.53149	-14.85324	11.27051
2.53663	-14.85324	11.27051
2.54093	-14.85324	11.27051
2.54514	-14.83127	11.27051
2.54936	-14.85324	11.27051
2.55357	-14.85324	11.27051
2.55778	-14.85324	11.27051
2.56198	-14.85324	11.27051
2.56721	-14.85324	11.27051
2.57152	-14.85324	11.27051
2.57571	-14.85324	11.27051
2.57991	-14.85324	11.27051
2.58410	-14.85324	11.27051
2.58829	-14.85324	11.27051
2.59248	-14.85324	11.27051
2.59672	-14.85324	11.27051
2.60100	-14.83127	11.27051
2.60520	-14.85324	11.27051
2.60939	-14.85324	11.27051
2.61358	-14.85324	11.27051
2.61777	-14.85324	11.27051
2.62196	-14.85324	11.27051
2.62615	-14.85324	11.27051
2.63045	-14.85324	11.27051
2.63477	-14.85324	11.27051
2.63895	-14.85324	11.27051
2.64313	-14.85324	11.27051
2.64732	-14.85324	11.27051
2.65150	-14.85324	11.27051
2.65568	-14.85324	11.27051
2.65998	-14.87521	11.27051
2.66418	-14.87521	11.27051
2.66837	-14.87521	11.27051
2.67255	-14.87521	11.27051
2.67673	-14.87521	11.27051
2.68092	-14.87521	11.27051
2.68510	-14.87521	11.27051
2.68940	-14.87521	11.27051
2.69366	-14.87521	11.27051
2.69786	-14.87521	11.27051
2.70205	-14.87521	11.27051
2.70624	-14.87521	11.27051
2.71043	-14.87521	11.27051
2.71462	-14.87521	11.27051
2.71885	-14.87521	11.27051
2.72313	-14.87521	11.27051
2.72733	-14.89718	11.27051
2.73153	-14.89718	11.27051
2.73579	-14.87521	11.27051
2.73998	-14.89718	11.27051
2.74417	-14.89718	11.27051
2.74836	-14.89718	11.27051
2.75267	-14.89718	11.27051
2.75687	-14.89718	11.27051
2.76106	-14.89718	11.27051
2.76526	-14.89718	11.27051
2.76945	-14.89718	11.27051
2.77364	-14.89718	11.27051
2.77783	-14.89718	11.27051
2.78214	-14.91916	11.27051
2.78634	-14.91916	11.27051
2.79053	-14.91916	11.27051
2.79471	-14.91916	11.27051
2.79890	-14.91916	11.27051
2.80308	-14.91916	11.27051
2.80727	-14.91916	11.27051
2.81158	-14.91916	11.27051
2.81583	-14.91916	11.27051
2.82002	-14.91916	11.27051
2.82421	-14.91916	11.27051
2.82840	-14.91916	11.27051
2.83259	-14.91916	11.27051
2.83690	-14.94113	11.27051
2.84114	-14.94113	11.27051
2.84542	-14.94113	11.27051
2.84961	-14.94113	11.27051
2.85380	-14.94113	11.27051
2.85799	-14.94113	11.27051
2.86218	-14.94113	11.27051
2.86637	-14.96310	11.27051
2.87056	-14.94113	11.27051
2.87484	-14.94113	11.27051
2.87904	-14.96310	11.27051
2.88323	-14.96310	11.27051
2.88741	-14.96310	11.27051
2.89161	-14.96310	11.27051
2.89579	-14.96310	11.27051
2.89998	-14.96310	11.27051
2.90428	-14.96310	11.27051
2.90849	-14.96310	11.27051
2.91268	-14.96310	11.27051
2.91686	-14.96310	11.27051
2.92105	-14.98507	11.27051
2.92523	-14.98507	11.27051
2.92941	-14.98507	11.27051
2.93371	-14.98507	11.27051
2.93813	-14.98507	11.27051
2.94237	-14.98507	11.27051
2.94660	-14.98507	11.27051
2.95083	-14.98507	11.27051
2.95507	-14.98507	11.27051
2.95927	-14.98507	11.27051
2.96381	-14.98507	11.27051
2.96811	-15.00705	11.27051
2.97233	-15.00705	11.27051
2.97653	-15.00705	11.27051
2.98073	-15.00705	11.27051
2.98492	-15.00705	11.27051
2.98911	-15.00705	11.27051
2.99331	-15.00705	11.27051
2.99761	-15.00705	11.27051
3.00182	-15.00705	11.27051
3.00601	-15.02902	11.27051
3.01020	-15.02902	11.27051
3.01439	-15.02902	11.27051
3.01857	-15.02902	11.27051
3.02276	-15.02902	11.27051
3.02707	-15.02902	11.27051
3.03128	-15.05099	11.27051
3.03547	-15.05099	11.27051
3.03979	-15.02902	11.27051
3.04398	-15.02902	11.27051
3.04817	-15.05099	11.27051
3.05235	-15.05099	11.27051
3.05666	-15.05099	11.27051
3.06089	-15.05099	11.27051
3.06508	-15.05099	11.27051
3.06928	-15.07297	11.27051
3.07347	-15.05099	11.27051
3.07765	-15.07297	11.27051
3.08190	-15.07297	11.27051
3.08616	-15.07297	11.27051
3.09044	-15.07297	11.27051
3.09465	-15.07297	11.27051
3.09884	-15.09494	11.27051
3.10303	-15.07297	11.27051
3.10721	-15.07297	11.27051
3.11140	-15.09494	11.27051
3.11559	-15.09494	11.27051
3.11989	-15.09494	11.27051
3.12410	-15.09494	11.27051
3.12830	-15.09494	11.27051
3.13248	-15.09494	11.27051
3.13667	-15.09494	11.27051
3.14097	-15.09494	11.27051
3.14516	-15.09494	11.27051
3.14946	-15.09494	11.27051
3.15367	-15.11691	11.27051
3.15786	-15.09494	11.27051
3.16205	-15.11691	11.27051
3.16624	-15.11691	11.27051
3.17043	-15.11691	11.27051
3.17461	-15.11691	11.27051
3.17892	-15.11691	11.27051
3.18314	-15.11691	11.27051
3.18733	-15.11691	11.27051
3.19152	-15.13888	11.27051
3.19567	-15.13888	11.27051
3.19989	-15.13888	11.27051
3.20408	-15.13888	11.27051
3.20833	-15.13888	11.27051
3.21262	-15.13888	11.27051
3.21682	-15.13888	11.27051
3.22100	-15.13888	11.27051
3.22519	-15.13888	11.27051
3.22938	-15.16086	11.27051
3.23356	-15.13888	11.27051
3.23775	-15.16086	11.27051
3.24216	-15.16086	11.27051
3.24637	-15.16086	11.27051
3.25055	-15.16086	11.27051
3.25474	-15.16086	11.27051
3.25893	-15.16086	11.27051
3.26311	-15.18283	11.27051
3.26730	-15.18283	11.27051
3.27161	-15.18283	11.27051
3.27583	-15.18283	11.27051
3.28002	-15.18283	11.27051
3.28421	-15.20480	11.27051
3.28839	-15.18283	11.27051
3.29258	-15.20480	11.27051
3.29676	-15.18283	11.27051
3.30105	-15.20480	11.27051
3.30528	-15.20480	11.27051
3.30947	-15.20480	11.27051
3.31366	-15.22677	11.27051
3.31785	-15.22677	11.27051
3.32203	-15.22677	11.27051
3.32622	-15.22677	11.27051
3.33046	-15.22677	11.27051
3.33473	-15.22677	11.27051
3.33892	-15.22677	11.27051
3.34321	-15.22677	11.27051
3.34740	-15.22677	11.27051
3.35160	-15.24875	11.27051
3.35578	-15.24875	11.27051
3.35997	-15.24875	11.27051
3.36426	-15.24875	11.27051
3.36846	-15.24875	11.27051
3.37265	-15.24875	11.27051
3.37684	-15.24875	11.27051
3.38103	-15.24875	11.27051
3.38521	-15.24875	11.27051
3.38940	-15.24875	11.27051
3.39370	-15.24875	11.27051
3.39791	-15.24875	11.27051
3.40210	-15.24875	11.27051
3.40650	-15.27072	11.27051
3.41072	-15.27072	11.27051
3.41491	-15.27072	11.27051
3.41910	-15.27072	11.27051
3.42341	-15.27072	11.27051
3.42771	-15.27072	11.27051
3.43190	-15.27072	11.27051
3.43609	-15.27072	11.27051
3.44028	-15.27072	11.27051
3.44458	-15.27072	11.27051
3.44876	-15.27072	11.27051
3.45302	-15.29269	11.27051
3.45730	-15.29269	11.27051
3.46150	-15.27072	11.27051
3.46569	-15.29269	11.27051
3.46988	-15.29269	11.27051
3.47406	-15.29269	11.27051
3.47825	-15.29269	11.27051
3.48244	-15.29269	11.27051
3.48674	-15.29269	11.27051
3.49097	-15.29269	11.27051
3.49516	-15.29269	11.27051
3.49934	-15.29269	11.27051
3.50353	-15.29269	11.27051
3.50767	-15.29269	11.27051
3.51186	-15.29269	11.27051
3.51616	-15.29269	11.27051
3.52037	-15.29269	11.27051
3.52456	-15.29269	11.27051
3.52875	-15.29269	11.27051
3.53293	-15.29269	11.27051
3.53712	-15.29269	11.27051
3.54130	-15.29269	11.27051
3.54574	-15.29269	11.27051
3.54996	-15.29269	11.27051
3.55414	-15.29269	11.27051
3.55833	-15.29269	11.27051
3.56252	-15.29269	11.27051
3.56670	-15.29269	11.27051
3.57089	-15.29269	11.27051
3.57513	-15.29269	11.27051
3.57940	-15.27072	11.27051
3.58361	-15.29269	11.27051
3.58780	-15.27072	11.27051
3.59199	-15.29269	11.27051
3.59617	-15.29269	11.27051
3.60036	-15.27072	11.27051
3.60454	-15.27072	11.27051
3.60884	-15.27072	11.27051
3.61304	-15.27072	11.27051
3.61722	-15.27072	11.27051
3.62141	-15.27072	11.27051
3.62559	-15.27072	11.27051
3.62978	-15.27072	11.27051
3.63396	-15.27072	11.27051
3.63826	-15.27072	11.27051
3.64248	-15.27072	11.27051
3.64677	-15.27072	11.27051
3.65096	-15.24875	11.27051
3.65514	-15.24875	11.27051
3.65933	-15.24875	11.27051
3.66351	-15.24875	11.27051
3.66782	-15.24875	11.27051
3.67205	-15.24875	11.27051
3.67624	-15.24875	11.27051
3.68043	-15.24875	11.27051
3.68462	-15.22677	11.27051
3.68880	-15.24875	11.27051
3.69299	-15.24875	11.27051
3.69722	-15.22677	11.27051
3.70149	-15.22677	11.27051
3.70568	-15.22677	11.27051
3.70987	-15.22677	11.27051
3.71406	-15.22677	11.27051
3.71825	-15.22677	11.27051
3.72243	-15.22677	11.27051
3.72662	-15.22677	11.27051
3.73091	-15.20480	11.27051
3.73511	-15.20480	11.27051
3.73930	-15.20480	11.27051
3.74349	-15.20480	11.27051
3.74778	-15.20480	11.27051
3.75196	-15.20480	11.27051
3.75615	-15.20480	11.27051
3.76045	-15.18283	11.27051
3.76465	-15.18283	11.27051
3.76884	-15.18283	11.27051
3.77303	-15.18283	11.27051
3.77722	-15.18283	11.27051
3.78141	-15.18283	11.27051
3.78559	-15.18283	11.27051
3.78989	-15.16086	11.27051
3.79412	-15.16086	11.27051
3.79831	-15.16086	11.27051
3.80249	-15.16086	11.27051
3.80668	-15.16086	11.27051
3.81086	-15.16086	11.27051
3.81505	-15.16086	11.27051
3.81930	-15.13888	11.27051
3.82359	-15.16086	11.27051
3.82779	-15.16086	11.27051
3.83198	-15.16086	11.27051
3.83617	-15.13888	11.27051
3.84035	-15.13888	11.27051
3.84454	-15.13888	11.27051
3.84883	-15.13888	11.27051
3.85312	-15.13888	11.27051
3.85733	-15.13888	11.27051
3.86152	-15.13888	11.27051
3.86571	-15.13888	11.27051
3.86989	-15.11691	11.27051
3.87408	-15.11691	11.27051
3.87827	-15.11691	11.27051
3.88256	-15.11691	11.27051
3.88677	-15.11691	11.27051
3.89096	-15.11691	11.27051
3.89515	-15.11691	11.27051
3.89934	-15.11691	11.27051
3.90352	-15.09494	11.27051
3.90767	-15.09494	11.27051
3.91197	-15.09494	11.27051
3.91618	-15.09494	11.27051
3.92037	-15.09494	11.27051
3.92456	-15.09494	11.27051
3.92874	-15.09494	11.27051
3.93293	-15.09494	11.27051
3.93711	-15.09494	11.27051
3.94134	-15.09494	11.27051
3.94561	-15.09494	11.27051
3.94991	-15.07297	11.27051
3.95409	-15.07297	11.27051
3.95828	-15.07297	11.27051
3.96247	-15.07297	11.27051
3.96665	-15.07297	11.27051
3.97084	-15.07297	11.27051
3.97513	-15.07297	11.27051
3.97934	-15.07297	11.27051
3.98352	-15.07297	11.27051
3.98767	-15.07297	11.27051
3.99186	-15.07297	11.27051
3.99604	-15.07297	11.27051
4.00023	-15.07297	11.27051
4.00452	-15.05099	11.27051
4.00874	-15.05099	11.27051
4.01292	-15.05099	11.27051
4.01711	-15.05099	11.27051
4.02129	-15.05099	11.27051
4.02548	-15.05099	11.27051
4.02966	-15.05099	11.27051
4.03397	-15.05099	11.27051
4.03819	-15.05099	11.27051
4.04239	-15.05099	11.27051
4.04657	-15.05099	11.27051
4.05086	-15.05099	11.27051
4.05505	-15.05099	11.27051
4.05923	-15.05099	11.27051
4.06347	-15.05099	11.27051
4.06775	-15.05099	11.27051
4.07195	-15.05099	11.27051
4.07614	-15.05099	11.27051
4.08032	-15.02902	11.27051
4.08451	-15.02902	11.27051
4.08869	-15.02902	11.27051
4.09288	-15.05099	11.27051
4.09717	-15.02902	11.27051
4.10137	-15.02902	11.27051
4.10555	-15.02902	11.27051
4.10974	-15.02902	11.27051
4.11392	-15.02902	11.27051
4.11811	-15.02902	11.27051
4.12229	-15.02902	11.27051
4.12659	-15.02902	11.27051
4.13080	-15.02902	11.27051
4.13499	-15.02902	11.27051
4.13917	-15.02902	11.27051
4.14336	-15.02902	11.27051
4.14756	-15.02902	11.27051
4.15185	-15.02902	11.27051
4.15614	-15.00705	11.27051
4.16037	-15.02902	11.27051
4.16456	-15.00705	11.27051
4.16874	-15.00705	11.27051
4.17293	-15.00705	11.27051
4.17711	-15.02902	11.27051
4.18130	-15.00705	11.27051
4.18553	-15.00705	11.27051
4.18980	-15.00705	11.27051
4.19400	-15.00705	11.27051
4.19819	-15.00705	11.27051
4.20240	-15.00705	11.27051
4.20659	-15.00705	11.27051
4.21078	-15.00705	11.27051
4.21497	-15.00705	11.27051
4.21927	-15.00705	11.27051
4.22348	-15.00705	11.27051
4.22767	-15.00705	11.27051
4.23187	-15.00705	11.27051
4.23605	-15.00705	11.27051
4.24024	-15.00705	11.27051
4.24443	-15.00705	11.27051
4.24872	-15.00705	11.27051
4.25303	-15.00705	11.27051
4.25724	-15.00705	11.27051
4.26142	-15.00705	11.27051
4.26561	-15.00705	11.27051
4.26979	-15.00705	11.27051
4.27398	-15.00705	11.27051
4.27828	-15.00705	11.27051
4.28250	-15.00705	11.27051
4.28669	-15.00705	11.27051
4.29087	-15.00705	11.27051
4.29506	-15.00705	11.27051
4.29924	-15.00705	11.27051
4.30343	-15.00705	11.27051
4.30767	-15.00705	11.27051
4.31194	-15.00705	11.27051
4.31613	-15.00705	11.27051
4.32033	-15.00705	11.27051
4.32452	-15.00705	11.27051
4.32871	-15.00705	11.27051
4.33290	-15.00705	11.27051
4.33709	-15.00705	11.27051
4.34142	-15.00705	11.27051
4.34565	-15.02902	11.27051
4.34985	-15.02902	11.27051
4.35415	-15.02902	11.27051
4.35834	-15.00705	11.27051
4.36253	-15.00705	11.27051
4.36672	-15.00705	11.27051
4.37102	-15.00705	11.27051
4.37525	-15.02902	11.27051
4.37945	-15.02902	11.27051
4.38365	-15.02902	11.27051
4.38783	-15.02902	11.27051
4.39202	-15.02902	11.27051
4.39621	-15.02902	11.27051
4.40052	-15.02902	11.27051
4.40475	-15.02902	11.27051
4.40899	-15.02902	11.27051
4.41319	-15.02902	11.27051
4.41738	-15.02902	11.27051
4.42157	-15.02902	11.27051
4.42576	-15.02902	11.27051
4.43001	-15.02902	11.27051
4.43428	-15.02902	11.27051
4.43849	-15.05099	11.27051
4.44268	-15.05099	11.27051
4.44688	-15.02902	11.27051
4.45107	-15.05099	11.27051
4.45536	-15.05099	11.27051
4.45956	-15.05099	11.27051
4.46386	-15.05099	11.27051
4.46807	-15.05099	11.27051
4.47226	-15.05099	11.27051
4.47645	-15.05099	11.27051
4.48064	-15.05099	11.27051
4.48483	-15.05099	11.27051
4.48902	-15.05099	11.27051
4.49335	-15.05099	11.27051
4.49759	-15.05099	11.27051
4.50180	-15.07297	11.27051
4.50600	-15.07297	11.27051
4.51021	-15.05099	11.27051
4.51440	-15.05099	11.27051
4.51859	-15.07297	11.27051
4.52295	-15.07297	11.27051
4.52723	-15.07297	11.27051
4.53144	-15.07297	11.27051
4.53566	-15.07297	11.27051
4.53987	-15.07297	11.27051
4.54407	-15.07297	11.27051
4.54828	-15.07297	11.27051
4.55365	-15.07297	11.27051
4.55805	-15.07297	11.27051
4.56226	-15.09494	11.27051
4.56647	-15.09494	11.27051
4.57068	-15.07297	11.27051
4.57488	-15.07297	11.27051
4.57909	-15.07297	11.27051
4.58382	-15.09494	11.27051
4.58815	-15.09494	11.27051
4.59237	-15.09494	11.27051
4.59658	-15.09494	11.27051
4.60077	-15.09494	11.27051
4.60496	-15.09494	11.27051
4.60915	-15.09494	11.27051
4.61334	-15.09494	11.27051
4.61764	-15.09494	11.27051
4.62185	-15.11691	11.27051
4.62604	-15.09494	11.27051
4.63023	-15.09494	11.27051
4.63441	-15.09494	11.27051
4.63860	-15.11691	11.27051
4.64278	-15.11691	11.27051
4.64710	-15.11691	11.27051
4.65131	-15.11691	11.27051
4.65551	-15.11691	11.27051
4.65979	-15.11691	11.27051
4.66398	-15.11691	11.27051
4.66816	-15.11691	11.27051
4.67234	-15.11691	11.27051
4.67665	-15.11691	11.27051
4.68089	-15.11691	11.27051
4.68509	-15.11691	11.27051
4.68928	-15.11691	11.27051
4.69347	-15.13888	11.27051
4.69766	-15.13888	11.27051
4.70185	-15.13888	11.27051
4.70609	-15.13888	11.27051
4.71036	-15.13888	11.27051
4.71456	-15.13888	11.27051
4.71875	-15.13888	11.27051
4.72294	-15.13888	11.27051
4.72713	-15.13888	11.27051
4.73132	-15.13888	11.27051
4.73551	-15.13888	11.27051
4.73979	-15.16086	11.27051
4.74399	-15.13888	11.27051
4.74818	-15.13888	11.27051
4.75236	-15.16086	11.27051
4.75655	-15.16086	11.27051
4.76084	-15.13888	11.27051
4.76502	-15.16086	11.27051
4.76932	-15.16086	11.27051
4.77353	-15.16086	11.27051
4.77771	-15.16086	11.27051
4.78191	-15.16086	11.27051
4.78609	-15.16086	11.27051
4.79028	-15.16086	11.27051
4.79446	-15.18283	11.27051
4.79874	-15.16086	11.27051
4.80298	-15.16086	11.27051
4.80717	-15.16086	11.27051
4.81136	-15.16086	11.27051
4.81556	-15.18283	11.27051
4.81975	-15.18283	11.27051
4.82393	-15.18283	11.27051
4.82817	-15.18283	11.27051
4.83245	-15.18283	11.27051
4.83665	-15.18283	11.27051
4.84083	-15.18283	11.27051
4.84502	-15.18283	11.27051
4.84921	-15.18283	11.27051
4.85339	-15.18283	11.27051
4.85758	-15.18283	11.27051
4.86197	-15.18283	11.27051
4.86617	-15.18283	11.27051
4.87038	-15.18283	11.27051
4.87457	-15.18283	11.27051
4.87876	-15.18283	11.27051
4.88295	-15.20480	11.27051
4.88714	-15.20480	11.27051
4.89144	-15.20480	11.27051
4.89565	-15.20480	11.27051
4.89984	-15.20480	11.27051
4.90403	-15.18283	11.27051
4.90821	-15.20480	11.27051
4.91240	-15.20480	11.27051
4.91658	-15.20480	11.27051
4.92087	-15.20480	11.27051
4.92511	-15.20480	11.27051
4.92931	-15.20480	11.27051
4.93350	-15.20480	11.27051
4.93769	-15.20480	11.27051
4.94188	-15.20480	11.27051
4.94607	-15.20480	11.27051
4.95030	-15.20480	11.27051
4.95458	-15.20480	11.27051
4.95879	-15.20480	11.27051
4.96308	-15.20480	11.27051
4.96727	-15.20480	11.27051
4.97145	-15.20480	11.27051
4.97564	-15.20480	11.27051
4.97983	-15.20480	11.27051
4.98412	-15.18283	11.27051
4.98832	-15.18283	11.27051
4.99251	-15.20480	11.27051
4.99670	-15.18283	11.27051
5.00088	-15.18283	11.27051
5.00507	-15.20480	11.27051
5.00925	-15.18283	11.27051
5.01354	-15.18283	11.27051
5.01775	-15.18283	11.27051
5.02194	-15.18283	11.27051
5.02612	-15.18283	11.27051
5.03030	-15.18283	11.27051
5.03449	-15.18283	11.27051
5.03867	-15.18283	11.27051
5.04299	-15.18283	11.27051
5.04722	-15.18283	11.27051
5.05141	-15.18283	11.27051
5.05560	-15.18283	11.27051
5.05979	-15.20480	11.27051
5.06408	-15.18283	11.27051
5.06827	-15.18283	11.27051
5.07252	-15.18283	11.27051
5.07680	-15.18283	11.27051
5.08099	-15.18283	11.27051
5.08519	-15.18283	11.27051
5.08938	-15.18283	11.27051
5.09356	-15.18283	11.27051
5.09775	-15.18283	11.27051
5.10193	-15.18283	11.27051
5.10622	-15.18283	11.27051
5.11043	-15.18283	11.27051
5.11462	-15.16086	11.27051
5.11880	-15.16086	11.27051
5.12299	-15.16086	11.27051
5.12717	-15.16086	11.27051
5.13135	-15.16086	11.27051
5.13567	-15.16086	11.27051
5.13987	-15.16086	11.27051
5.14406	-15.16086	11.27051
5.14825	-15.16086	11.27051
5.15244	-15.16086	11.27051
5.15662	-15.16086	11.27051
5.16081	-15.16086	11.27051
5.16528	-15.16086	11.27051
5.16950	-15.16086	11.27051
5.17369	-15.16086	11.27051
5.17788	-15.16086	11.27051
5.18207	-15.16086	11.27051
5.18628	-15.16086	11.27051
5.19047	-15.16086	11.27051
5.19470	-15.16086	11.27051
5.19898	-15.16086	11.27051
5.20319	-15.16086	11.27051
5.20738	-15.16086	11.27051
5.21158	-15.16086	11.27051
5.21577	-15.13888	11.27051
5.21995	-15.16086	11.27051
5.22414	-15.16086	11.27051
5.22843	-15.16086	11.27051
5.23263	-15.16086	11.27051
5.23681	-15.16086	11.27051
5.24100	-15.16086	11.27051
5.24518	-15.16086	11.27051
5.24937	-15.16086	11.27051
5.25355	-15.13888	11.27051
5.25785	-15.13888	11.27051
5.26206	-15.16086	11.27051
5.26634	-15.16086	11.27051
5.27053	-15.16086	11.27051
5.27471	-15.13888	11.27051
5.27890	-15.13888	11.27051
5.28308	-15.13888	11.27051
5.28738	-15.16086	11.27051
5.29162	-15.16086	11.27051
5.29582	-15.13888	11.27051
5.30001	-15.16086	11.27051
5.30420	-15.16086	11.27051
5.30839	-15.16086	11.27051
5.31257	-15.13888	11.27051
5.31681	-15.13888	11.27051
5.32108	-15.16086	11.27051
5.32527	-15.16086	11.27051
5.32946	-15.16086	11.27051
5.33365	-15.13888	11.27051
5.33783	-15.16086	11.27051
5.34201	-15.16086	11.27051
5.34620	-15.16086	11.27051
5.35048	-15.16086	11.27051
5.35468	-15.16086	11.27051
5.35887	-15.16086	11.27051
5.36306	-15.16086	11.27051
5.36734	-15.16086	11.27051
5.37153	-15.16086	11.27051
5.37568	-15.16086	11.27051
5.37998	-15.18283	11.27051
5.38418	-15.16086	11.27051
5.38837	-15.16086	11.27051
5.39255	-15.16086	11.27051
5.39674	-15.16086	11.27051
5.40092	-15.16086	11.27051
5.40510	-15.18283	11.27051
5.40942	-15.18283	11.27051
5.41366	-15.18283	11.27051
5.41785	-15.18283	11.27051
5.42205	-15.18283	11.27051
5.42624	-15.18283	11.27051
5.43043	-15.18283	11.27051
5.43462	-15.20480	11.27051
5.43886	-15.20480	11.27051
5.44313	-15.18283	11.27051
5.44733	-15.20480	11.27051
5.45152	-15.18283	11.27051
5.45568	-15.20480	11.27051
5.45986	-15.20480	11.27051
5.46405	-15.20480	11.27051
5.46835	-15.20480	11.27051
5.47265	-15.20480	11.27051
5.47688	-15.20480	11.27051
5.48107	-15.22677	11.27051
5.48526	-15.20480	11.27051
5.48945	-15.20480	11.27051
5.49364	-15.20480	11.27051
5.49783	-15.22677	11.27051
5.50214	-15.22677	11.27051
5.50635	-15.22677	11.27051
5.51055	-15.22677	11.27051
5.51477	-15.22677	11.27051
5.51896	-15.24875	11.27051
5.52314	-15.22677	11.27051
5.52733	-15.24875	11.27051
5.53167	-15.24875	11.27051
5.53591	-15.24875	11.27051
5.54011	-15.24875	11.27051
5.54431	-15.24875	11.27051
5.54850	-15.24875	11.27051
5.55269	-15.24875	11.27051
5.55688	-15.24875	11.27051
5.56113	-15.27072	11.27051
5.56540	-15.27072	11.27051
5.56971	-15.27072	11.27051
5.57391	-15.27072	11.27051
5.57810	-15.27072	11.27051
5.58229	-15.27072	11.27051
5.58648	-15.27072	11.27051
5.59067	-15.27072	11.27051
5.59497	-15.27072	11.27051
5.59917	-15.29269	11.27051
5.60335	-15.29269	11.27051
5.60755	-15.27072	11.27051
5.61174	-15.29269	11.27051
5.61592	-15.29269	11.27051
5.62011	-15.29269	11.27051
5.62441	-15.29269	11.27051
5.62861	-15.29269	11.27051
5.63280	-15.29269	11.27051
5.63698	-15.31466	11.27051
5.64117	-15.29269	11.27051
5.64535	-15.31466	11.27051
5.64954	-15.31466	11.27051
5.65383	-15.31466	11.27051
5.65807	-15.31466	11.27051
5.66226	-15.31466	11.27051
5.66645	-15.31466	11.27051
5.67075	-15.31466	11.27051
5.67493	-15.31466	11.27051
5.67911	-15.31466	11.27051
5.68336	-15.33664	11.27051
5.68763	-15.31466	11.27051
5.69184	-15.33664	11.27051
5.69602	-15.33664	11.27051
5.70021	-15.33664	11.27051
5.70439	-15.33664	11.27051
5.70858	-15.33664	11.27051
5.71276	-15.33664	11.27051
5.71705	-15.33664	11.27051
5.72125	-15.35861	11.27051
5.72543	-15.35861	11.27051
5.72962	-15.35861	11.27051
5.73380	-15.35861	11.27051
5.73799	-15.35861	11.27051
5.74217	-15.35861	11.27051
5.74647	-15.35861	11.27051
5.75070	-15.35861	11.27051
5.75490	-15.35861	11.27051
5.75909	-15.35861	11.27051
5.76328	-15.38058	11.27051
5.76747	-15.38058	11.27051
5.77177	-15.35861	11.27051
5.77608	-15.38058	11.27051
5.78033	-15.38058	11.27051
5.78452	-15.38058	11.27051
5.78871	-15.38058	11.27051
5.79290	-15.38058	11.27051
5.79710	-15.38058	11.27051
5.80129	-15.38058	11.27051
5.80553	-15.38058	11.27051
5.80980	-15.38058	11.27051
5.81400	-15.40256	11.27051
5.81819	-15.38058	11.27051
5.82238	-15.40256	11.27051
5.82657	-15.40256	11.27051
5.83076	-15.40256	11.27051
5.83495	-15.40256	11.27051
5.83924	-15.40256	11.27051
5.84345	-15.40256	11.27051
5.84765	-15.40256	11.27051
5.85183	-15.40256	11.27051
5.85602	-15.40256	11.27051
5.86020	-15.40256	11.27051
5.86439	-15.40256	11.27051
5.86869	-15.40256	11.27051
5.87299	-15.42453	11.27051
5.87718	-15.42453	11.27051
5.88137	-15.42453	11.27051
5.88556	-15.42453	11.27051
5.88974	-15.42453	11.27051
5.89392	-15.42453	11.27051
5.89821	-15.42453	11.27051
5.90245	-15.42453	11.27051
5.90664	-15.44650	11.27051
5.91084	-15.44650	11.27051
5.91503	-15.42453	11.27051
5.91922	-15.42453	11.27051
5.92341	-15.42453	11.27051
5.92766	-15.44650	11.27051
5.93194	-15.42453	11.27051
5.93614	-15.42453	11.27051
5.94033	-15.44650	11.27051
5.94452	-15.44650	11.27051
5.94870	-15.44650	11.27051
5.95289	-15.44650	11.27051
5.95707	-15.44650	11.27051
5.96137	-15.46847	11.27051
5.96557	-15.46847	11.27051
5.96976	-15.44650	11.27051
5.97405	-15.46847	11.27051
5.97824	-15.44650	11.27051
5.98242	-15.44650	11.27051
5.98661	-15.44650	11.27051
5.99091	-15.46847	11.27051
5.99512	-15.46847	11.27051
5.99930	-15.46847	11.27051
6.00349	-15.46847	11.27051
6.00767	-15.46847	11.27051
6.01186	-15.46847	11.27051
6.01604	-15.46847	11.27051
6.02033	-15.46847	11.27051
6.02457	-15.46847	11.27051
6.02876	-15.46847	11.27051
6.03295	-15.46847	11.27051
6.03714	-15.46847	11.27051
6.04133	-15.46847	11.27051
6.04552	-15.49045	11.27051
6.04976	-15.46847	11.27051
6.05402	-15.49045	11.27051
6.05822	-15.49045	11.27051
6.06241	-15.49045	11.27051
6.06659	-15.49045	11.27051
6.07077	-15.49045	11.27051
6.07506	-15.49045	11.27051
6.07925	-15.49045	11.27051
6.08356	-15.49045	11.27051
6.08777	-15.49045	11.27051
6.09196	-15.49045	11.27051
6.09614	-15.49045	11.27051
6.10033	-15.49045	11.27051
6.10451	-15.49045	11.27051
6.10870	-15.49045	11.27051
6.11300	-15.49045	11.27051
6.11721	-15.51242	11.27051
6.12140	-15.51242	11.27051
6.12558	-15.51242	11.27051
6.12977	-15.51242	11.27051
6.13396	-15.51242	11.27051
6.13814	-15.51242	11.27051
6.14244	-15.51242	11.27051
6.14668	-15.51242	11.27051
6.15088	-15.51242	11.27051
6.15507	-15.51242	11.27051
6.15926	-15.51242	11.27051
6.16345	-15.51242	11.27051
6.16765	-15.53439	11.27051
6.17189	-15.53439	11.27051
6.17628	-15.53439	11.27051
6.18048	-15.51242	11.27051
6.18467	-15.53439	11.27051
6.18886	-15.53439	11.27051
6.19306	-15.53439	11.27051
6.19726	-15.53439	11.27051
6.20144	-15.53439	11.27051
6.20573	-15.53439	11.27051
6.20994	-15.53439	11.27051
6.21412	-15.53439	11.27051
6.21831	-15.53439	11.27051
6.22249	-15.53439	11.27051
6.22668	-15.53439	11.27051
6.23086	-15.53439	11.27051
6.23516	-15.53439	11.27051
6.23936	-15.53439	11.27051
6.24356	-15.53439	11.27051
6.24775	-15.53439	11.27051
6.25194	-15.53439	11.27051
6.25612	-15.53439	11.27051
6.26031	-15.53439	11.27051
6.26463	-15.53439	11.27051
6.26886	-15.55636	11.27051
6.27305	-15.55636	11.27051
6.27734	-15.55636	11.27051
6.28153	-15.53439	11.27051
6.28571	-15.55636	11.27051
6.28990	-15.55636	11.27051
6.29414	-15.55636	11.27051
6.29841	-15.55636	11.27051
6.30261	-15.55636	11.27051
6.30680	-15.55636	11.27051
6.31098	-15.55636	11.27051
6.31517	-15.55636	11.27051
6.31935	-15.53439	11.27051
6.32354	-15.55636	11.27051
6.32784	-15.55636	11.27051
6.33204	-15.55636	11.27051
6.33623	-15.55636	11.27051
6.34041	-15.55636	11.27051
6.34460	-15.55636	11.27051
6.34879	-15.55636	11.27051
6.35297	-15.55636	11.27051
6.35727	-15.55636	11.27051
6.36148	-15.55636	11.27051
6.36566	-15.55636	11.27051
6.36985	-15.55636	11.27051
6.37403	-15.55636	11.27051
6.37832	-15.55636	11.27051
6.38251	-15.55636	11.27051
6.38680	-15.55636	11.27051
6.39105	-15.53439	11.27051
6.39525	-15.53439	11.27051
6.39943	-15.55636	11.27051
6.40363	-15.55636	11.27051
6.40782	-15.55636	11.27051
6.41201	-15.53439	11.27051
6.41625	-15.55636	11.27051
6.42052	-15.53439	11.27051
6.42472	-15.53439	11.27051
6.42891	-15.53439	11.27051
6.43310	-15.53439	11.27051
6.43728	-15.53439	11.27051
6.44147	-15.55636	11.27051
6.44565	-15.53439	11.27051
6.44996	-15.53439	11.27051
6.45417	-15.53439	11.27051
6.45836	-15.53439	11.27051
6.46255	-15.53439	11.27051
6.46674	-15.53439	11.27051
6.47093	-15.53439	11.27051
6.47511	-15.53439	11.27051
6.47952	-15.51242	11.27051
6.48371	-15.53439	11.27051
6.48791	-15.53439	11.27051
6.49210	-15.51242	11.27051
6.49629	-15.51242	11.27051
6.50048	-15.51242	11.27051
6.50467	-15.51242	11.27051
6.50900	-15.51242	11.27051
6.51325	-15.51242	11.27051
6.51745	-15.51242	11.27051
6.52164	-15.51242	11.27051
6.52584	-15.49045	11.27051
6.53003	-15.49045	11.27051
6.53422	-15.49045	11.27051
6.53846	-15.49045	11.27051
6.54273	-15.49045	11.27051
6.54694	-15.49045	11.27051
6.55113	-15.49045	11.27051
6.55532	-15.49045	11.27051
6.55951	-15.46847	11.27051
6.56368	-15.46847	11.27051
6.56787	-15.46847	11.27051
6.57217	-15.46847	11.27051
6.57638	-15.46847	11.27051
6.58069	-15.46847	11.27051
6.58488	-15.44650	11.27051
6.58907	-15.44650	11.27051
6.59326	-15.44650	11.27051
6.59745	-15.44650	11.27051
6.60176	-15.44650	11.27051
6.60597	-15.44650	11.27051
6.61016	-15.44650	11.27051
6.61435	-15.44650	11.27051
6.61854	-15.44650	11.27051
6.62272	-15.44650	11.27051
6.62691	-15.42453	11.27051
6.63119	-15.42453	11.27051
6.63542	-15.42453	11.27051
6.63963	-15.42453	11.27051
6.64382	-15.42453	11.27051
6.64800	-15.40256	11.27051
6.65219	-15.40256	11.27051
6.65638	-15.40256	11.27051
6.66063	-15.40256	11.27051
6.66490	-15.40256	11.27051
6.66909	-15.38058	11.27051
6.67328	-15.38058	11.27051
6.67747	-15.38058	11.27051
6.68176	-15.38058	11.27051
6.68594	-15.38058	11.27051
6.69012	-15.35861	11.27051
6.69442	-15.35861	11.27051
6.69863	-15.35861	11.27051
6.70285	-15.35861	11.27051
6.70705	-15.35861	11.27051
6.71124	-15.35861	11.27051
6.71542	-15.33664	11.27051
6.71962	-15.33664	11.27051
6.72392	-15.33664	11.27051
6.72813	-15.33664	11.27051
6.73231	-15.33664	11.27051
6.73650	-15.31466	11.27051
6.74069	-15.31466	11.27051
6.74488	-15.31466	11.27051
6.74906	-15.31466	11.27051
6.75335	-15.31466	11.27051
6.75759	-15.29269	11.27051
6.76178	-15.29269	11.27051
6.76598	-15.31466	11.27051
6.77016	-15.31466	11.27051
6.77435	-15.29269	11.27051
6.77853	-15.29269	11.27051
6.78287	-15.27072	11.27051
6.78714	-15.27072	11.27051
6.79134	-15.27072	11.27051
6.79553	-15.24875	11.27051
6.79967	-15.24875	11.27051
6.80386	-15.24875	11.27051
6.80804	-15.24875	11.27051
6.81223	-15.24875	11.27051
6.81652	-15.24875	11.27051
6.82072	-15.24875	11.27051
6.82491	-15.24875	11.27051
6.82909	-15.22677	11.27051
6.83328	-15.22677	11.27051
6.83747	-15.22677	11.27051
6.84165	-15.20480	11.27051
6.84595	-15.20480	11.27051
6.85015	-15.20480	11.27051
6.85434	-15.20480	11.27051
6.85853	-15.20480	11.27051
6.86272	-15.20480	11.27051
6.86690	-15.18283	11.27051
6.87109	-15.18283	11.27051
6.87538	-15.18283	11.27051
6.87962	-15.18283	11.27051
6.88392	-15.18283	11.27051
6.88811	-15.18283	11.27051
6.89229	-15.16086	11.27051
6.89648	-15.13888	11.27051
6.90066	-15.16086	11.27051
6.90492	-15.16086	11.27051
6.90918	-15.13888	11.27051
6.91338	-15.13888	11.27051
6.91756	-15.13888	11.27051
6.92175	-15.11691	11.27051
6.92593	-15.11691	11.27051
6.93012	-15.11691	11.27051
6.93430	-15.11691	11.27051
6.93859	-15.09494	11.27051
6.94280	-15.11691	11.27051
6.94699	-15.11691	11.27051
6.95117	-15.09494	11.27051
6.95536	-15.09494	11.27051
6.95955	-15.09494	11.27051
6.96374	-15.09494	11.27051
6.96804	-15.09494	11.27051
6.97224	-15.07297	11.27051
6.97643	-15.07297	11.27051
6.98062	-15.07297	11.27051
6.98491	-15.07297	11.27051
6.98909	-15.07297	11.27051
6.99328	-15.05099	11.27051
6.99758	-15.05099	11.27051
7.00185	-15.05099	11.27051
7.00606	-15.05099	11.27051
7.01025	-15.05099	11.27051
7.01445	-15.02902	11.27051
7.01864	-15.02902	11.27051
7.02283	-15.02902	11.27051
7.02708	-15.02902	11.27051
7.03137	-15.02902	11.27051
7.03559	-15.00705	11.27051
7.03978	-15.00705	11.27051
7.04397	-15.00705	11.27051
7.04816	-15.00705	11.27051
7.05235	-14.98507	11.27051
7.05654	-15.00705	11.27051
7.06084	-15.00705	11.27051
7.06505	-14.98507	11.27051
7.06925	-14.98507	11.27051
7.07344	-14.98507	11.27051
7.07765	-14.96310	11.27051
7.08184	-14.96310	11.27051
7.08615	-14.96310	11.27051
7.09046	-14.96310	11.27051
7.09466	-14.96310	11.27051
7.09887	-14.96310	11.27051
7.10306	-14.96310	11.27051
7.10724	-14.94113	11.27051
7.11143	-14.94113	11.27051
7.11562	-14.94113	11.27051
7.11993	-14.94113	11.27051
7.12418	-14.91916	11.27051
7.12837	-14.91916	11.27051
7.13256	-14.91916	11.27051
7.13674	-14.91916	11.27051
7.14094	-14.91916	11.27051
7.14514	-14.91916	11.27051
7.14950	-14.91916	11.27051
7.15379	-14.91916	11.27051
7.15801	-14.91916	11.27051
7.16221	-14.89718	11.27051
7.16640	-14.89718	11.27051
7.17060	-14.89718	11.27051
7.17483	-14.89718	11.27051
7.17903	-14.89718	11.27051
7.18339	-14.89718	11.27051
7.18773	-14.89718	11.27051
7.19194	-14.89718	11.27051
7.19614	-14.89718	11.27051
7.20033	-14.87521	11.27051
7.20451	-14.87521	11.27051
7.20869	-14.87521	11.27051
7.21302	-14.85324	11.27051
7.21722	-14.87521	11.27051
7.22139	-14.87521	11.27051
7.22557	-14.87521	11.27051
7.22974	-14.85324	11.27051
7.23391	-14.85324	11.27051
7.23808	-14.85324	11.27051
7.24267	-14.85324	11.27051
7.24688	-14.85324	11.27051
7.25105	-14.85324	11.27051
7.25522	-14.83127	11.27051
7.25939	-14.83127	11.27051
7.26356	-14.83127	11.27051
7.26773	-14.83127	11.27051
7.27195	-14.83127	11.27051
7.27620	-14.83127	11.27051
7.28038	-14.80929	11.27051
7.28454	-14.80929	11.27051
7.28880	-14.80929	11.27051
7.29296	-14.80929	11.27051
7.29713	-14.80929	11.27051
7.30130	-14.80929	11.27051
7.30559	-14.80929	11.27051
7.30980	-14.80929	11.27051
7.31399	-14.80929	11.27051
7.31817	-14.78732	11.27051
7.32236	-14.80929	11.27051
7.32654	-14.80929	11.27051
7.33073	-14.78732	11.27051
7.33503	-14.78732	11.27051
7.33924	-14.78732	11.27051
7.34343	-14.78732	11.27051
7.34764	-14.78732	11.27051
7.35183	-14.78732	11.27051
7.35603	-14.78732	11.27051
7.36021	-14.76535	11.27051
7.36454	-14.76535	11.27051
7.36879	-14.76535	11.27051
7.37298	-14.76535	11.27051
7.37717	-14.76535	11.27051
7.38136	-14.76535	11.27051
7.38554	-14.76535	11.27051
7.38984	-14.76535	11.27051
7.39407	-14.76535	11.27051
7.39834	-14.76535	11.27051
7.40254	-14.76535	11.27051
7.40673	-14.76535	11.27051
7.41092	-14.74338	11.27051
7.41510	-14.74338	11.27051
7.41929	-14.74338	11.27051
7.42347	-14.74338	11.27051
7.42779	-14.74338	11.27051
7.43199	-14.74338	11.27051
7.43618	-14.74338	11.27051
7.44037	-14.74338	11.27051
7.44456	-14.74338	11.27051
7.44874	-14.74338	11.27051
7.45293	-14.74338	11.27051
7.45724	-14.74338	11.27051
7.46145	-14.74338	11.27051
7.46564	-14.74338	11.27051
7.46982	-14.72140	11.27051
7.47401	-14.74338	11.27051
7.47820	-14.72140	11.27051
7.48239	-14.72140	11.27051
7.48671	-14.72140	11.27051
7.49110	-14.72140	11.27051
7.49529	-14.72140	11.27051
7.49949	-14.72140	11.27051
7.50368	-14.72140	11.27051
7.50787	-14.72140	11.27051
7.51206	-14.72140	11.27051
7.51629	-14.72140	11.27051
7.52057	-14.72140	11.27051
7.52477	-14.72140	11.27051
7.52895	-14.72140	11.27051
7.53314	-14.72140	11.27051
7.53733	-14.72140	11.27051
7.54151	-14.72140	11.27051
7.54570	-14.72140	11.27051
7.54999	-14.69943	11.27051
7.55419	-14.72140	11.27051
7.55838	-14.72140	11.27051
7.56257	-14.69943	11.27051
7.56675	-14.69943	11.27051
7.57094	-14.69943	11.27051
7.57512	-14.72140	11.27051
7.57942	-14.72140	11.27051
7.58364	-14.69943	11.27051
7.58783	-14.69943	11.27051
7.59212	-14.69943	11.27051
7.59631	-14.72140	11.27051
7.60050	-14.69943	11.27051
7.60468	-14.69943	11.27051
7.60897	-14.69943	11.27051
7.61321	-14.72140	11.27051
7.61741	-14.72140	11.27051
7.62160	-14.69943	11.27051
7.62579	-14.69943	11.27051
7.62998	-14.72140	11.27051
7.63416	-14.69943	11.27051
7.63840	-14.69943	11.27051
7.64267	-14.72140	11.27051
7.64687	-14.72140	11.27051
7.65106	-14.69943	11.27051
7.65525	-14.72140	11.27051
7.65943	-14.69943	11.27051
7.66363	-14.72140	11.27051
7.66781	-14.72140	11.27051
7.67211	-14.72140	11.27051
7.67632	-14.72140	11.27051
7.68050	-14.72140	11.27051
7.68469	-14.72140	11.27051
7.68888	-14.72140	11.27051
7.69317	-14.72140	11.27051
7.69735	-14.72140	11.27051
7.70165	-14.72140	11.27051
7.70586	-14.72140	11.27051
7.71005	-14.72140	11.27051
7.71424	-14.72140	11.27051
7.71842	-14.72140	11.27051
7.72261	-14.72140	11.27051
7.72679	-14.72140	11.27051
7.73114	-14.72140	11.27051
7.73537	-14.72140	11.27051
7.73957	-14.72140	11.27051
7.74376	-14.72140	11.27051
7.74795	-14.72140	11.27051
7.75213	-14.72140	11.27051
7.75632	-14.72140	11.27051
7.76055	-14.74338	11.27051
7.76482	-14.74338	11.27051
7.76901	-14.74338	11.27051
7.77320	-14.74338	11.27051
7.77738	-14.74338	11.27051
7.78157	-14.74338	11.27051
7.78575	-14.74338	11.27051
7.78994	-14.74338	11.27051
7.79433	-14.74338	11.27051
7.79853	-14.74338	11.27051
7.80273	-14.74338	11.27051
7.80691	-14.74338	11.27051
7.81110	-14.74338	11.27051
7.81529	-14.74338	11.27051
7.81947	-14.74338	11.27051
7.82378	-14.74338	11.27051
7.82798	-14.74338	11.27051
7.83217	-14.74338	11.27051
7.83635	-14.76535	11.27051
7.84054	-14.76535	11.27051
7.84472	-14.74338	11.27051
7.84891	-14.74338	11.27051
7.85322	-14.74338	11.27051
7.85745	-14.76535	11.27051
7.86164	-14.74338	11.27051
7.86582	-14.76535	11.27051
7.87001	-14.74338	11.27051
7.87419	-14.74338	11.27051
7.87838	-14.74338	11.27051
7.88261	-14.74338	11.27051
7.88688	-14.76535	11.27051
7.89108	-14.76535	11.27051
7.89537	-14.74338	11.27051
7.89957	-14.74338	11.27051
7.90376	-14.76535	11.27051
7.90794	-14.74338	11.27051
7.91212	-14.74338	11.27051
7.91642	-14.76535	11.27051
7.92062	-14.74338	11.27051
7.92480	-14.76535	11.27051
7.92899	-14.76535	11.27051
7.93317	-14.74338	11.27051
7.93736	-14.74338	11.27051
7.94154	-14.74338	11.27051
7.94584	-14.76535	11.27051
7.95005	-14.74338	11.27051
7.95424	-14.74338	11.27051
7.95843	-14.74338	11.27051
7.96261	-14.76535	11.27051
7.96680	-14.74338	11.27051
7.97098	-14.76535	11.27051
7.97528	-14.74338	11.27051
7.97952	-14.74338	11.27051
7.98368	-14.76535	11.27051
7.98787	-14.74338	11.27051
7.99205	-14.74338	11.27051
7.99634	-14.74338	11.27051
8.00053	-14.74338	11.27051
8.00477	-14.74338	11.27051
8.00905	-14.74338	11.27051
8.01324	-14.74338	11.27051
8.01743	-14.74338	11.27051
8.02161	-14.74338	11.27051
8.02580	-14.74338	11.27051
8.02999	-14.76535	11.27051
8.03417	-14.76535	11.27051
8.03846	-14.74338	11.27051
8.04267	-14.74338	11.27051
8.04686	-14.74338	11.27051
8.05104	-14.74338	11.27051
8.05523	-14.74338	11.27051
8.05941	-14.76535	11.27051
8.06361	-14.76535	11.27051
8.06791	-14.74338	11.27051
8.07211	-14.74338	11.27051
8.07630	-14.74338	11.27051
8.08049	-14.74338	11.27051
8.08468	-14.74338	11.27051
8.08886	-14.74338	11.27051
8.09305	-14.74338	11.27051
8.09755	-14.76535	11.27051
8.10176	-14.74338	11.27051
8.10595	-14.74338	11.27051
8.11015	-14.74338	11.27051
8.11434	-14.74338	11.27051
8.11853	-14.74338	11.27051
8.12271	-14.74338	11.27051
8.12695	-14.74338	11.27051
8.13122	-14.74338	11.27051
8.13542	-14.74338	11.27051
8.13962	-14.74338	11.27051
8.14380	-14.74338	11.27051
8.14799	-14.74338	11.27051
8.15218	-14.74338	11.27051
8.15636	-14.74338	11.27051
8.16065	-14.74338	11.27051
8.16485	-14.74338	11.27051
8.16904	-14.76535	11.27051
8.17323	-14.74338	11.27051
8.17742	-14.76535	11.27051
8.18160	-14.74338	11.27051
8.18579	-14.74338	11.27051
8.19008	-14.74338	11.27051
8.19430	-14.74338	11.27051
8.19859	-14.74338	11.27051
8.20278	-14.74338	11.27051
8.20697	-14.74338	11.27051
8.21115	-14.74338	11.27051
8.21534	-14.76535	11.27051
8.21964	-14.76535	11.27051
8.22389	-14.76535	11.27051
8.22809	-14.74338	11.27051
8.23228	-14.76535	11.27051
8.23647	-14.76535	11.27051
8.24067	-14.76535	11.27051
8.24486	-14.76535	11.27051
8.24909	-14.76535	11.27051
8.25336	-14.76535	11.27051
8.25756	-14.78732	11.27051
8.26175	-14.76535	11.27051
8.26593	-14.78732	11.27051
8.27012	-14.78732	11.27051
8.27430	-14.76535	11.27051
8.27849	-14.78732	11.27051
8.28278	-14.78732	11.27051
8.28698	-14.78732	11.27051
8.29117	-14.78732	11.27051
8.29536	-14.78732	11.27051
8.29966	-14.78732	11.27051
8.30385	-14.80929	11.27051
8.30803	-14.80929	11.27051
8.31234	-14.80929	11.27051
8.31654	-14.80929	11.27051
8.32073	-14.80929	11.27051
8.32492	-14.80929	11.27051
8.32910	-14.83127	11.27051
8.33329	-14.83127	11.27051
8.33748	-14.83127	11.27051
8.34182	-14.83127	11.27051
8.34605	-14.83127	11.27051
8.35025	-14.85324	11.27051
8.35444	-14.85324	11.27051
8.35863	-14.85324	11.27051
8.36282	-14.85324	11.27051
8.36701	-14.87521	11.27051
8.37124	-14.87521	11.27051
8.37552	-14.87521	11.27051
8.37969	-14.87521	11.27051
8.38388	-14.87521	11.27051
8.38806	-14.89718	11.27051
8.39225	-14.89718	11.27051
8.39644	-14.89718	11.27051
8.40073	-14.89718	11.27051
8.40502	-14.89718	11.27051
8.40925	-14.91916	11.27051
8.41343	-14.91916	11.27051
8.41762	-14.91916	11.27051
8.42181	-14.94113	11.27051
8.42599	-14.94113	11.27051
8.43018	-14.94113	11.27051
8.43448	-14.94113	11.27051
8.43869	-14.94113	11.27051
8.44288	-14.96310	11.27051
8.44706	-14.96310	11.27051
8.45125	-14.96310	11.27051
8.45544	-14.96310	11.27051
8.45964	-14.96310	11.27051
8.46395	-14.98507	11.27051
8.46820	-14.98507	11.27051
8.47240	-14.98507	11.27051
8.47660	-15.00705	11.27051
8.48080	-15.00705	11.27051
8.48499	-15.00705	11.27051
8.48919	-15.00705	11.27051
8.49346	-15.00705	11.27051
8.49774	-15.02902	11.27051
8.50204	-15.02902	11.27051
8.50623	-15.02902	11.27051
8.51042	-15.02902	11.27051
8.51461	-15.02902	11.27051
8.51879	-15.05099	11.27051
8.52298	-15.05099	11.27051
8.52728	-15.07297	11.27051
8.53148	-15.07297	11.27051
8.53568	-15.07297	11.27051
8.53987	-15.07297	11.27051
8.54406	-15.09494	11.27051
8.54824	-15.09494	11.27051
8.55243	-15.09494	11.27051
8.55674	-15.09494	11.27051
8.56095	-15.09494	11.27051
8.56514	-15.11691	11.27051
8.56932	-15.11691	11.27051
8.57351	-15.11691	11.27051
8.57770	-15.11691	11.27051
8.58188	-15.11691	11.27051
8.58621	-15.13888	11.27051
8.59044	-15.13888	11.27051
8.59464	-15.16086	11.27051
8.59883	-15.16086	11.27051
8.60314	-15.16086	11.27051
8.60733	-15.16086	11.27051
8.61152	-15.16086	11.27051
8.61573	-15.18283	11.27051
8.62001	-15.18283	11.27051
8.62421	-15.18283	11.27051
8.62840	-15.18283	11.27051
8.63258	-15.20480	11.27051
8.63677	-15.20480	11.27051
8.64096	-15.20480	11.27051
8.64514	-15.20480	11.27051
8.64944	-15.22677	11.27051
8.65364	-15.22677	11.27051
8.65783	-15.22677	11.27051
8.66201	-15.22677	11.27051
8.66620	-15.22677	11.27051
8.67039	-15.24875	11.27051
8.67457	-15.22677	11.27051
8.67887	-15.24875	11.27051
8.68308	-15.24875	11.27051
8.68727	-15.24875	11.27051
8.69146	-15.24875	11.27051
8.69565	-15.27072	11.27051
8.69984	-15.27072	11.27051
8.70413	-15.27072	11.27051
8.70847	-15.29269	11.27051
8.71269	-15.29269	11.27051
8.71689	-15.29269	11.27051
8.72107	-15.29269	11.27051
8.72526	-15.29269	11.27051
8.72945	-15.31466	11.27051
8.73363	-15.31466	11.27051
8.73786	-15.31466	11.27051
8.74214	-15.31466	11.27051
8.74634	-15.31466	11.27051
8.75052	-15.33664	11.27051
8.75471	-15.33664	11.27051
8.75891	-15.33664	11.27051
8.76310	-15.33664	11.27051
8.76728	-15.33664	11.27051
8.77160	-15.35861	11.27051
8.77580	-15.35861	11.27051
8.77999	-15.35861	11.27051
8.78418	-15.38058	11.27051
8.78837	-15.38058	11.27051
8.79255	-15.38058	11.27051
8.79674	-15.38058	11.27051
8.80104	-15.38058	11.27051
8.80535	-15.38058	11.27051
8.80954	-15.40256	11.27051
8.81373	-15.38058	11.27051
8.81791	-15.38058	11.27051
8.82210	-15.40256	11.27051
8.82629	-15.40256	11.27051
8.83061	-15.40256	11.27051
8.83484	-15.42453	11.27051
8.83904	-15.42453	11.27051
8.84323	-15.42453	11.27051
8.84742	-15.42453	11.27051
8.85162	-15.42453	11.27051
8.85581	-15.44650	11.27051
8.86005	-15.44650	11.27051
8.86434	-15.44650	11.27051
8.86854	-15.44650	11.27051
8.87274	-15.44650	11.27051
8.87692	-15.44650	11.27051
8.88111	-15.44650	11.27051
8.88530	-15.44650	11.27051
8.88949	-15.46847	11.27051
8.89378	-15.46847	11.27051
8.89799	-15.46847	11.27051
8.90217	-15.46847	11.27051
8.90647	-15.46847	11.27051
8.91066	-15.46847	11.27051
8.91485	-15.49045	11.27051
8.91904	-15.46847	11.27051
8.92342	-15.46847	11.27051
8.92764	-15.49045	11.27051
8.93183	-15.49045	11.27051
8.93602	-15.49045	11.27051
8.94021	-15.49045	11.27051
8.94440	-15.49045	11.27051
8.94858	-15.49045	11.27051
8.95292	-15.49045	11.27051
8.95721	-15.51242	11.27051
8.96142	-15.51242	11.27051
8.96563	-15.51242	11.27051
8.96984	-15.51242	11.27051
8.97405	-15.51242	11.27051
8.97826	-15.51242	11.27051
8.98352	-15.53439	11.27051
8.98779	-15.53439	11.27051
8.99201	-15.53439	11.27051
8.99622	-15.53439	11.27051
9.00043	-15.53439	11.27051
9.00463	-15.53439	11.27051
9.00898	-15.53439	11.27051
9.01410	-15.53439	11.27051
9.01840	-15.55636	11.27051
9.02262	-15.55636	11.27051
9.02683	-15.53439	11.27051
9.03104	-15.55636	11.27051
9.03525	-15.55636	11.27051
9.03945	-15.53439	11.27051
9.04375	-15.55636	11.27051
9.04804	-15.55636	11.27051
9.05224	-15.55636	11.27051
9.05644	-15.55636	11.27051
9.06063	-15.57834	11.27051
9.06482	-15.55636	11.27051
9.06901	-15.55636	11.27051
9.07319	-15.57834	11.27051
9.07749	-15.57834	11.27051
9.08170	-15.57834	11.27051
9.08589	-15.57834	11.27051
9.09008	-15.57834	11.27051
9.09427	-15.57834	11.27051
9.09845	-15.57834	11.27051
9.10264	-15.57834	11.27051
9.10695	-15.57834	11.27051
9.11127	-15.57834	11.27051
9.11546	-15.57834	11.27051
9.11965	-15.60031	11.27051
9.12384	-15.60031	11.27051
9.12803	-15.60031	11.27051
9.13222	-15.60031	11.27051
9.13652	-15.57834	11.27051
9.14076	-15.60031	11.27051
9.14496	-15.60031	11.27051
9.14915	-15.60031	11.27051
9.15335	-15.60031	11.27051
9.15754	-15.60031	11.27051
9.16172	-15.60031	11.27051
9.16596	-15.60031	11.27051
9.17023	-15.60031	11.27051
9.17444	-15.60031	11.27051
9.17863	-15.60031	11.27051
9.18281	-15.60031	11.27051
9.18700	-15.60031	11.27051
9.19119	-15.60031	11.27051
9.19538	-15.60031	11.27051
9.19969	-15.60031	11.27051
9.20390	-15.60031	11.27051
9.20809	-15.60031	11.27051
9.21238	-15.60031	11.27051
9.21657	-15.60031	11.27051
9.22076	-15.60031	11.27051
9.22495	-15.62228	11.27051
9.22925	-15.60031	11.27051
9.23346	-15.60031	11.27051
9.23765	-15.62228	11.27051
9.24184	-15.60031	11.27051
9.24603	-15.62228	11.27051
9.25021	-15.62228	11.27051
9.25440	-15.62228	11.27051
9.25871	-15.60031	11.27051
9.26296	-15.62228	11.27051
9.26715	-15.60031	11.27051
9.27134	-15.62228	11.27051
9.27553	-15.60031	11.27051
9.27968	-15.60031	11.27051
9.28387	-15.60031	11.27051
9.28811	-15.62228	11.27051
9.29239	-15.60031	11.27051
9.29659	-15.62228	11.27051
9.30078	-15.60031	11.27051
9.30497	-15.62228	11.27051
9.30916	-15.62228	11.27051
9.31346	-15.60031	11.27051
9.31765	-15.60031	11.27051
9.32194	-15.62228	11.27051
9.32615	-15.60031	11.27051
9.33034	-15.60031	11.27051
9.33452	-15.60031	11.27051
9.33871	-15.60031	11.27051
9.34290	-15.62228	11.27051
9.34708	-15.60031	11.27051
9.35139	-15.60031	11.27051
9.35562	-15.62228	11.27051
9.35981	-15.62228	11.27051
9.36400	-15.60031	11.27051
9.36818	-15.60031	11.27051
9.37237	-15.60031	11.27051
9.37656	-15.60031	11.27051
9.38089	-15.60031	11.27051
9.38513	-15.60031	11.27051
9.38932	-15.60031	11.27051
9.39351	-15.60031	11.27051
9.39770	-15.60031	11.27051
9.40188	-15.60031	11.27051
9.40607	-15.60031	11.27051
9.41032	-15.60031	11.27051
9.41470	-15.60031	11.27051
9.41890	-15.60031	11.27051
9.42309	-15.60031	11.27051
9.42728	-15.60031	11.27051
9.43146	-15.60031	11.27051
9.43566	-15.60031	11.27051
9.43985	-15.60031	11.27051
9.44414	-15.60031	11.27051
9.44834	-15.60031	11.27051
9.45253	-15.60031	11.27051
9.45672	-15.57834	11.27051
9.46091	-15.60031	11.27051
9.46510	-15.60031	11.27051
9.46929	-15.60031	11.27051
9.47360	-15.57834	11.27051
9.47781	-15.60031	11.27051
9.48200	-15.57834	11.27051
9.48619	-15.60031	11.27051
9.49038	-15.57834	11.27051
9.49457	-15.57834	11.27051
9.49876	-15.57834	11.27051
9.50307	-15.57834	11.27051
9.50731	-15.55636	11.27051
9.51151	-15.57834	11.27051
9.51580	-15.57834	11.27051
9.51999	-15.57834	11.27051
9.52418	-15.57834	11.27051
9.52837	-15.55636	11.27051
9.53262	-15.55636	11.27051
9.53689	-15.55636	11.27051
9.54110	-15.55636	11.27051
9.54529	-15.55636	11.27051
9.54948	-15.55636	11.27051
9.55367	-15.55636	11.27051
9.55785	-15.55636	11.27051
9.56204	-15.55636	11.27051
9.56634	-15.55636	11.27051
9.57054	-15.55636	11.27051
9.57474	-15.53439	11.27051
9.57892	-15.53439	11.27051
9.58311	-15.53439	11.27051
9.58730	-15.53439	11.27051
9.59148	-15.53439	11.27051
9.59579	-15.53439	11.27051
9.60000	-15.51242	11.27051
9.60419	-15.53439	11.27051
9.60838	-15.51242	11.27051
9.61257	-15.51242	11.27051
9.61687	-15.51242	11.27051
9.62105	-15.51242	11.27051
9.62537	-15.51242	11.27051
9.62961	-15.51242	11.27051
9.63380	-15.49045	11.27051
9.63799	-15.49045	11.27051
9.64217	-15.49045	11.27051
9.64636	-15.49045	11.27051
9.65055	-15.49045	11.27051
9.65479	-15.49045	11.27051
9.65906	-15.46847	11.27051
9.66326	-15.46847	11.27051
9.66745	-15.46847	11.27051
9.67164	-15.46847	11.27051
9.67583	-15.46847	11.27051
9.68002	-15.46847	11.27051
9.68420	-15.44650	11.27051
9.68850	-15.44650	11.27051
9.69270	-15.44650	11.27051
9.69689	-15.44650	11.27051
9.70108	-15.44650	11.27051
9.70527	-15.44650	11.27051
9.70945	-15.44650	11.27051
9.71364	-15.44650	11.27051
9.71805	-15.42453	11.27051
9.72226	-15.42453	11.27051
9.72645	-15.42453	11.27051
9.73063	-15.42453	11.27051
9.73482	-15.42453	11.27051
9.73901	-15.40256	11.27051
9.74319	-15.40256	11.27051
9.74750	-15.40256	11.27051
9.75172	-15.40256	11.27051
9.75592	-15.40256	11.27051
9.76011	-15.40256	11.27051
9.76430	-15.40256	11.27051
9.76848	-15.40256	11.27051
9.77267	-15.38058	11.27051
9.77691	-15.38058	11.27051
9.78118	-15.38058	11.27051
9.78538	-15.38058	11.27051
9.78958	-15.38058	11.27051
9.79382	-15.38058	11.27051
9.79802	-15.35861	11.27051
9.80221	-15.35861	11.27051
9.80640	-15.35861	11.27051
9.81070	-15.35861	11.27051
9.81491	-15.35861	11.27051
9.81921	-15.35861	11.27051
9.82340	-15.35861	11.27051
9.82760	-15.33664	11.27051
9.83179	-15.33664	11.27051
9.83597	-15.35861	11.27051
9.84028	-15.33664	11.27051
9.84449	-15.33664	11.27051
9.84869	-15.33664	11.27051
9.85288	-15.33664	11.27051
9.85706	-15.33664	11.27051
9.86125	-15.31466	11.27051
9.86544	-15.31466	11.27051
9.86976	-15.31466	11.27051
9.87402	-15.29269	11.27051
9.87822	-15.31466	11.27051
9.88241	-15.31466	11.27051
9.88660	-15.29269	11.27051
9.89079	-15.29269	11.27051
9.89497	-15.29269	11.27051
9.89923	-15.29269	11.27051
9.90351	-15.29269	11.27051
9.90769	-15.27072	11.27051
9.91188	-15.27072	11.27051
9.91607	-15.29269	11.27051
9.92037	-15.27072	11.27051
9.92455	-15.27072	11.27051
9.92874	-15.27072	11.27051
9.93304	-15.27072	11.27051
9.93724	-15.27072	11.27051
9.94143	-15.27072	11.27051
9.94562	-15.24875	11.27051
9.94981	-15.27072	11.27051
9.95400	-15.24875	11.27051
9.95819	-15.24875	11.27051
9.96249	-15.24875	11.27051
9.96670	-15.24875	11.27051
9.97089	-15.24875	11.27051
9.97508	-15.24875	11.27051
9.97926	-15.22677	11.27051
9.98346	-15.22677	11.27051
9.98765	-15.22677	11.27051
9.99196	-15.22677	11.27051
9.99623	-15.22677	11.27051
10.00043	-15.22677	11.27051
10.00463	-15.22677	11.27051
10.00883	-15.22677	11.27051
10.01302	-15.20480	11.27051
10.01721	-15.20480	11.27051
10.02157	-15.20480	11.27051
10.02585	-15.20480	11.27051
10.03005	-15.20480	11.27051
10.03426	-15.20480	11.27051
10.03846	-15.18283	11.27051
10.04265	-15.20480	11.27051
10.04684	-15.20480	11.27051
10.05103	-15.18283	11.27051
10.05534	-15.18283	11.27051
10.05955	-15.20480	11.27051
10.06376	-15.18283	11.27051
10.06795	-15.18283	11.27051
10.07213	-15.18283	11.27051
10.07632	-15.18283	11.27051
10.08051	-15.18283	11.27051
10.08481	-15.18283	11.27051
10.08903	-15.16086	11.27051
10.09323	-15.16086	11.27051
10.09742	-15.16086	11.27051
10.10161	-15.16086	11.27051
10.10580	-15.16086	11.27051
10.10998	-15.16086	11.27051
10.11432	-15.16086	11.27051
10.11856	-15.16086	11.27051
10.12286	-15.16086	11.27051
10.12705	-15.13888	11.27051
10.13124	-15.16086	11.27051
10.13543	-15.13888	11.27051
10.13962	-15.16086	11.27051
10.14387	-15.16086	11.27051
10.14815	-15.16086	11.27051
10.15234	-15.13888	11.27051
10.15653	-15.16086	11.27051
10.16072	-15.13888	11.27051
10.16491	-15.13888	11.27051
10.16909	-15.13888	11.27051
10.17328	-15.13888	11.27051
10.17758	-15.13888	11.27051
10.18178	-15.13888	11.27051
10.18597	-15.13888	11.27051
10.19016	-15.13888	11.27051
10.19435	-15.11691	11.27051
10.19858	-15.11691	11.27051
10.20279	-15.13888	11.27051
10.20718	-15.11691	11.27051
10.21140	-15.11691	11.27051
10.21560	-15.11691	11.27051
10.21979	-15.11691	11.27051
10.22409	-15.11691	11.27051
10.22828	-15.11691	11.27051
10.23247	-15.11691	11.27051
10.23681	-15.11691	11.27051
10.24107	-15.09494	11.27051
10.24527	-15.11691	11.27051
10.24947	-15.11691	11.27051
10.25366	-15.09494	11.27051
10.25785	-15.09494	11.27051
10.26205	-15.09494	11.27051
10.26629	-15.09494	11.27051
10.27058	-15.09494	11.27051
10.27479	-15.09494	11.27051
10.27899	-15.09494	11.27051
10.28318	-15.09494	11.27051
10.28737	-15.09494	11.27051
10.29158	-15.07297	11.27051
10.29577	-15.07297	11.27051
10.30008	-15.07297	11.27051
10.30429	-15.07297	11.27051
10.30849	-15.07297	11.27051
10.31268	-15.07297	11.27051
10.31687	-15.07297	11.27051
10.32106	-15.05099	11.27051
10.32536	-15.07297	11.27051
10.32967	-15.07297	11.27051
10.33388	-15.07297	11.27051
10.33807	-15.05099	11.27051
10.34225	-15.05099	11.27051
10.34644	-15.05099	11.27051
10.35062	-15.05099	11.27051
10.35481	-15.05099	11.27051
10.35915	-15.05099	11.27051
10.36337	-15.02902	11.27051
10.36757	-15.05099	11.27051
10.37176	-15.02902	11.27051
10.37595	-15.02902	11.27051
10.38013	-15.02902	11.27051
10.38432	-15.02902	11.27051
10.38856	-15.02902	11.27051
10.39283	-15.02902	11.27051
10.39702	-15.02902	11.27051
10.40121	-15.02902	11.27051
10.40540	-15.02902	11.27051
10.40958	-15.02902	11.27051
10.41377	-15.00705	11.27051
10.41795	-15.00705	11.27051
10.42225	-15.00705	11.27051
10.42656	-15.00705	11.27051
10.43074	-15.00705	11.27051
10.43493	-15.00705	11.27051
10.43912	-15.00705	11.27051
10.44330	-15.00705	11.27051
10.44749	-15.00705	11.27051
10.45180	-15.00705	11.27051
10.45601	-14.98507	11.27051
10.46021	-15.00705	11.27051
10.46442	-14.98507	11.27051
10.46862	-14.98507	11.27051
10.47281	-14.98507	11.27051
10.47699	-14.98507	11.27051
10.48130	-14.98507	11.27051
10.48557	-14.98507	11.27051
10.48978	-14.98507	11.27051
10.49398	-14.98507	11.27051
10.49818	-14.98507	11.27051
10.50237	-14.98507	11.27051
10.50657	-14.96310	11.27051
10.51082	-14.98507	11.27051
10.51511	-14.98507	11.27051
10.51931	-14.98507	11.27051
10.52351	-14.98507	11.27051
10.52779	-14.98507	11.27051
10.53197	-14.96310	11.27051
10.53616	-14.96310	11.27051
10.54035	-14.96310	11.27051
10.54464	-14.96310	11.27051
10.54885	-14.96310	11.27051
10.55304	-14.96310	11.27051
10.55723	-14.96310	11.27051
10.56142	-14.94113	11.27051
10.56561	-14.94113	11.27051
10.56979	-14.96310	11.27051
10.57410	-14.96310	11.27051
10.57831	-14.94113	11.27051
10.58250	-14.94113	11.27051
10.58668	-14.94113	11.27051
10.59087	-14.94113	11.27051
10.59506	-14.94113	11.27051
10.59924	-14.94113	11.27051
10.60361	-14.94113	11.27051
10.60784	-14.94113	11.27051
10.61203	-14.94113	11.27051
10.61622	-14.91916	11.27051
10.62041	-14.91916	11.27051
10.62459	-14.91916	11.27051
10.62889	-14.91916	11.27051
10.63312	-14.91916	11.27051
10.63739	-14.91916	11.27051
10.64160	-14.91916	11.27051
10.64579	-14.91916	11.27051
10.64997	-14.91916	11.27051
10.65416	-14.91916	11.27051
10.65834	-14.91916	11.27051
10.66253	-14.91916	11.27051
10.66683	-14.89718	11.27051
10.67103	-14.91916	11.27051
10.67522	-14.89718	11.27051
10.67941	-14.89718	11.27051
10.68360	-14.91916	11.27051
10.68779	-14.89718	11.27051
10.69198	-14.89718	11.27051
10.69628	-14.89718	11.27051
10.70051	-14.89718	11.27051
10.70470	-14.89718	11.27051
10.70889	-14.89718	11.27051
10.71307	-14.89718	11.27051
10.71726	-14.89718	11.27051
10.72145	-14.89718	11.27051
10.72578	-14.89718	11.27051
10.73013	-14.89718	11.27051
10.73433	-14.89718	11.27051
10.73853	-14.89718	11.27051
10.74272	-14.89718	11.27051
10.74691	-14.89718	11.27051
10.75110	-14.89718	11.27051
10.75534	-14.89718	11.27051
10.75963	-14.89718	11.27051
10.76382	-14.89718	11.27051
10.76801	-14.89718	11.27051
10.77220	-14.87521	11.27051
10.77639	-14.89718	11.27051
10.78057	-14.89718	11.27051
10.78476	-14.87521	11.27051
10.78905	-14.89718	11.27051
10.79325	-14.89718	11.27051
10.79743	-14.87521	11.27051
10.80162	-14.87521	11.27051
10.80581	-14.87521	11.27051
10.80999	-14.87521	11.27051
10.81418	-14.87521	11.27051
10.81848	-14.87521	11.27051
10.82269	-14.87521	11.27051
10.82689	-14.87521	11.27051
10.83119	-14.87521	11.27051
10.83537	-14.87521	11.27051
10.83957	-14.87521	11.27051
10.84375	-14.87521	11.27051
10.84809	-14.87521	11.27051
10.85232	-14.87521	11.27051
10.85652	-14.87521	11.27051
10.86071	-14.87521	11.27051
10.86490	-14.87521	11.27051
10.86910	-14.85324	11.27051
10.87329	-14.87521	11.27051
10.87752	-14.87521	11.27051
10.88179	-14.87521	11.27051
10.88598	-14.87521	11.27051
10.89017	-14.85324	11.27051
10.89436	-14.85324	11.27051
10.89855	-14.87521	11.27051
10.90273	-14.85324	11.27051
10.90692	-14.85324	11.27051
10.91121	-14.85324	11.27051
10.91542	-14.85324	11.27051
10.91961	-14.85324	11.27051
10.92380	-14.85324	11.27051
10.92799	-14.85324	11.27051
10.93228	-14.85324	11.27051
10.93647	-14.85324	11.27051
10.94077	-14.85324	11.27051
10.94497	-14.85324	11.27051
10.94916	-14.85324	11.27051
10.95335	-14.85324	11.27051
10.95754	-14.85324	11.27051
10.96172	-14.85324	11.27051
10.96591	-14.83127	11.27051
10.97025	-14.83127	11.27051
10.97448	-14.85324	11.27051
10.97868	-14.85324	11.27051
10.98287	-14.83127	11.27051
10.98706	-14.85324	11.27051
10.99126	-14.85324	11.27051
10.99545	-14.83127	11.27051
10.99970	-14.83127	11.27051
11.00398	-14.83127	11.27051
11.00818	-14.83127	11.27051
11.01237	-14.83127	11.27051
11.01656	-14.83127	11.27051
11.02075	-14.83127	11.27051
11.02493	-14.83127	11.27051
11.02913	-14.83127	11.27051
11.03353	-14.83127	11.27051
11.03773	-14.85324	11.27051
11.04191	-14.83127	11.27051
11.04610	-14.83127	11.27051
11.05029	-14.83127	11.27051
11.05448	-14.83127	11.27051
11.05867	-14.85324	11.27051
11.06297	-14.85324	11.27051
11.06717	-14.83127	11.27051
11.07136	-14.83127	11.27051
11.07557	-14.83127	11.27051
11.07976	-14.83127	11.27051
11.08395	-14.83127	11.27051
11.08815	-14.83127	11.27051
11.09246	-14.83127	11.27051
11.09671	-14.83127	11.27051
11.10091	-14.83127	11.27051
11.10510	-14.83127	11.27051
11.10929	-14.83127	11.27051
11.11349	-14.83127	11.27051
11.11768	-14.83127	11.27051
11.12192	-14.83127	11.27051
11.12619	-14.83127	11.27051
11.13041	-14.83127	11.27051
11.13471	-14.83127	11.27051
11.13892	-14.83127	11.27051
11.14312	-14.83127	11.27051
11.14731	-14.83127	11.27051
11.15150	-14.83127	11.27051
11.15579	-14.83127	11.27051
11.16000	-14.83127	11.27051
11.16420	-14.83127	11.27051
11.16839	-14.83127	11.27051
11.17258	-14.83127	11.27051
11.17677	-14.83127	11.27051
11.18096	-14.83127	11.27051
11.18527	-14.83127	11.27051
11.18949	-14.83127	11.27051
11.19369	-14.83127	11.27051
11.19788	-14.83127	11.27051
11.20206	-14.83127	11.27051
11.20625	-14.85324	11.27051
11.21044	-14.85324	11.27051
11.21476	-14.83127	11.27051
11.21901	-14.85324	11.27051
11.22321	-14.85324	11.27051
11.22741	-14.85324	11.27051
11.23162	-14.85324	11.27051
11.23593	-14.85324	11.27051
11.24012	-14.85324	11.27051
11.24436	-14.85324	11.27051
11.24864	-14.85324	11.27051
11.25285	-14.85324	11.27051
11.25704	-14.85324	11.27051
11.26123	-14.85324	11.27051
11.26542	-14.85324	11.27051
11.26961	-14.85324	11.27051
11.27379	-14.85324	11.27051
11.27809	-14.85324	11.27051
11.28229	-14.85324	11.27051
11.28648	-14.85324	11.27051
11.29067	-14.87521	11.27051
11.29486	-14.87521	11.27051
11.29904	-14.87521	11.27051
11.30323	-14.87521	11.27051
11.30753	-14.87521	11.27051
11.31170	-14.87521	11.27051
11.31589	-14.87521	11.27051
11.32008	-14.89718	11.27051
11.32427	-14.87521	11.27051
11.32846	-14.87521	11.27051
11.33265	-14.89718	11.27051
11.33714	-14.89718	11.27051
11.34135	-14.87521	11.27051
11.34555	-14.87521	11.27051
11.34973	-14.89718	11.27051
11.35392	-14.89718	11.27051
11.35810	-14.89718	11.27051
11.36229	-14.89718	11.27051
11.36652	-14.89718	11.27051
11.37080	-14.89718	11.27051
11.37500	-14.89718	11.27051
11.37919	-14.91916	11.27051
11.38337	-14.91916	11.27051
11.38757	-14.91916	11.27051
11.39176	-14.89718	11.27051
11.39594	-14.91916	11.27051
11.40024	-14.91916	11.27051
11.40444	-14.91916	11.27051
11.40863	-14.91916	11.27051
11.41281	-14.91916	11.27051
11.41700	-14.91916	11.27051
11.42119	-14.91916	11.27051
11.42537	-14.91916	11.27051
11.42968	-14.94113	11.27051
11.43389	-14.94113	11.27051
11.43819	-14.94113	11.27051
11.44238	-14.94113	11.27051
11.44657	-14.94113	11.27051
11.45076	-14.94113	11.27051
11.45494	-14.94113	11.27051
11.45927	-14.94113	11.27051
11.46350	-14.94113	11.27051
11.46781	-14.96310	11.27051
11.47203	-14.94113	11.27051
11.47628	-14.94113	11.27051
11.48048	-14.94113	11.27051
11.48467	-14.94113	11.27051
11.48895	-14.96310	11.27051
11.49325	-14.96310	11.27051
11.49745	-14.96310	11.27051
11.50164	-14.96310	11.27051
11.50583	-14.96310	11.27051
11.51002	-14.96310	11.27051
11.51421	-14.98507	11.27051
11.51841	-14.98507	11.27051
11.52272	-14.98507	11.27051
11.52692	-14.96310	11.27051
11.53111	-14.96310	11.27051
11.53531	-14.98507	11.27051
11.53963	-14.96310	11.27051
11.54382	-14.96310	11.27051
11.54800	-14.96310	11.27051
11.55232	-14.98507	11.27051
11.55654	-14.98507	11.27051
11.56073	-14.98507	11.27051
11.56492	-14.98507	11.27051
11.56911	-14.98507	11.27051
11.57330	-14.98507	11.27051
11.57748	-14.98507	11.27051
11.58180	-14.98507	11.27051
11.58605	-14.98507	11.27051
11.59026	-14.98507	11.27051
11.59445	-14.98507	11.27051
11.59864	-14.98507	11.27051
11.60284	-14.98507	11.27051
11.60703	-14.98507	11.27051
11.61127	-14.98507	11.27051
11.61556	-14.98507	11.27051
11.61976	-14.98507	11.27051
11.62395	-14.98507	11.27051
11.62814	-14.98507	11.27051
11.63232	-14.98507	11.27051
11.63651	-14.98507	11.27051
11.64080	-15.00705	11.27051
11.64510	-15.00705	11.27051
11.64930	-15.00705	11.27051
11.65348	-15.00705	11.27051
11.65767	-15.00705	11.27051
11.66186	-15.00705	11.27051
11.66605	-15.00705	11.27051
11.67023	-15.00705	11.27051
11.67454	-15.00705	11.27051
11.67875	-15.00705	11.27051
11.68294	-15.02902	11.27051
11.68713	-15.00705	11.27051
11.69131	-15.00705	11.27051
11.69550	-15.00705	11.27051
11.69967	-15.02902	11.27051
11.70401	-15.02902	11.27051
11.70824	-15.00705	11.27051
11.71244	-15.02902	11.27051
11.71663	-15.02902	11.27051
11.72082	-15.02902	11.27051
11.72501	-15.02902	11.27051
11.72920	-15.02902	11.27051
11.73343	-15.02902	11.27051
11.73770	-15.02902	11.27051
11.74201	-15.02902	11.27051
11.74619	-15.02902	11.27051
11.75038	-15.05099	11.27051
11.75457	-15.05099	11.27051
11.75875	-15.05099	11.27051
11.76294	-15.05099	11.27051
11.76724	-15.05099	11.27051
11.77145	-15.05099	11.27051
11.77565	-15.05099	11.27051
11.77984	-15.05099	11.27051
11.78402	-15.05099	11.27051
11.78821	-15.07297	11.27051
11.79240	-15.07297	11.27051
11.79670	-15.07297	11.27051
11.80090	-15.07297	11.27051
11.80509	-15.07297	11.27051
11.80928	-15.07297	11.27051
11.81347	-15.07297	11.27051
11.81765	-15.07297	11.27051
11.82184	-15.07297	11.27051
11.82617	-15.07297	11.27051
11.83040	-15.07297	11.27051
11.83460	-15.09494	11.27051
11.83879	-15.09494	11.27051
11.84309	-15.09494	11.27051
11.84729	-15.09494	11.27051
11.85148	-15.09494	11.27051
11.85573	-15.09494	11.27051
11.86000	-15.09494	11.27051
11.86420	-15.09494	11.27051
11.86838	-15.11691	11.27051
11.87257	-15.11691	11.27051
11.87676	-15.11691	11.27051
11.88095	-15.11691	11.27051
11.88513	-15.11691	11.27051
11.88943	-15.13888	11.27051
11.89363	-15.13888	11.27051
11.89782	-15.13888	11.27051
11.90200	-15.13888	11.27051
11.90619	-15.13888	11.27051
11.91038	-15.13888	11.27051
11.91456	-15.13888	11.27051
11.91886	-15.16086	11.27051
11.92308	-15.13888	11.27051
11.92726	-15.16086	11.27051
11.93145	-15.16086	11.27051
11.93565	-15.16086	11.27051
11.93983	-15.16086	11.27051
11.94412	-15.16086	11.27051
11.94845	-15.16086	11.27051
11.95268	-15.18283	11.27051
11.95687	-15.18283	11.27051
11.96106	-15.18283	11.27051
11.96527	-15.18283	11.27051
11.96946	-15.20480	11.27051
11.97365	-15.20480	11.27051
11.97790	-15.20480	11.27051
11.98217	-15.20480	11.27051
11.98637	-15.20480	11.27051
11.99056	-15.20480	11.27051
11.99475	-15.22677	11.27051
11.99894	-15.22677	11.27051
12.00313	-15.22677	11.27051
12.00731	-15.22677	11.27051
12.01163	-15.24875	11.27051
12.01584	-15.24875	11.27051
12.02002	-15.24875	11.27051
12.02421	-15.24875	11.27051
12.02840	-15.24875	11.27051
12.03259	-15.27072	11.27051
12.03677	-15.27072	11.27051
12.04107	-15.27072	11.27051
12.04539	-15.27072	11.27051
12.04958	-15.27072	11.27051
12.05377	-15.27072	11.27051
12.05795	-15.29269	11.27051
12.06214	-15.29269	11.27051
12.06633	-15.29269	11.27051
12.07066	-15.29269	11.27051
12.07490	-15.31466	11.27051
12.07909	-15.31466	11.27051
12.08328	-15.31466	11.27051
12.08747	-15.31466	11.27051
12.09167	-15.31466	11.27051
12.09586	-15.33664	11.27051
12.10010	-15.33664	11.27051
12.10437	-15.33664	11.27051
12.10857	-15.35861	11.27051
12.11276	-15.35861	11.27051
12.11695	-15.35861	11.27051
12.12113	-15.38058	11.27051
12.12532	-15.38058	11.27051
12.12951	-15.38058	11.27051
12.13380	-15.38058	11.27051
12.13800	-15.38058	11.27051
12.14219	-15.40256	11.27051
12.14649	-15.40256	11.27051
12.15067	-15.40256	11.27051
12.15486	-15.40256	11.27051
12.15905	-15.42453	11.27051
12.16335	-15.42453	11.27051
12.16758	-15.42453	11.27051
12.17177	-15.44650	11.27051
12.17596	-15.44650	11.27051
12.18015	-15.44650	11.27051
12.18434	-15.44650	11.27051
12.18852	-15.46847	11.27051
12.19282	-15.46847	11.27051
12.19706	-15.46847	11.27051
12.20126	-15.46847	11.27051
12.20546	-15.46847	11.27051
12.20965	-15.49045	11.27051
12.21384	-15.49045	11.27051
12.21802	-15.49045	11.27051
12.22227	-15.51242	11.27051
12.22654	-15.51242	11.27051
12.23074	-15.51242	11.27051
12.23493	-15.51242	11.27051
12.23912	-15.53439	11.27051
12.24331	-15.53439	11.27051
12.24761	-15.53439	11.27051
12.25180	-15.53439	11.27051
12.25610	-15.53439	11.27051
12.26030	-15.55636	11.27051
12.26449	-15.55636	11.27051
12.26868	-15.57834	11.27051
12.27286	-15.57834	11.27051
12.27705	-15.57834	11.27051
12.28124	-15.57834	11.27051
12.28554	-15.60031	11.27051
12.28976	-15.60031	11.27051
12.29395	-15.60031	11.27051
12.29814	-15.62228	11.27051
12.30233	-15.62228	11.27051
12.30651	-15.62228	11.27051
12.31070	-15.62228	11.27051
12.31505	-15.62228	11.27051
12.31928	-15.62228	11.27051
12.32348	-15.64425	11.27051
12.32768	-15.64425	11.27051
12.33187	-15.64425	11.27051
12.33605	-15.64425	11.27051
12.34024	-15.66623	11.27051
12.34448	-15.66623	11.27051
12.34886	-15.66623	11.27051
12.35305	-15.68820	11.27051
12.35724	-15.68820	11.27051
12.36143	-15.68820	11.27051
12.36561	-15.68820	11.27051
12.36980	-15.68820	11.27051
12.37399	-15.71017	11.27051
12.37828	-15.71017	11.27051
12.38249	-15.71017	11.27051
12.38667	-15.71017	11.27051
12.39086	-15.73214	11.27051
12.39505	-15.73214	11.27051
12.39923	-15.73214	11.27051
12.40342	-15.73214	11.27051
12.40773	-15.73214	11.27051
12.41194	-15.75412	11.27051
12.41613	-15.75412	11.27051
12.42032	-15.75412	11.27051
12.42453	-15.75412	11.27051
12.42873	-15.75412	11.27051
12.43292	-15.75412	11.27051
12.43774	-15.77609	11.27051
12.44201	-15.77609	11.27051
12.44620	-15.77609	11.27051
12.45049	-15.77609	11.27051
12.45472	-15.77609	11.27051
12.45892	-15.77609	11.27051
12.46311	-15.79806	11.27051
12.46738	-15.79806	11.27051
12.47175	-15.79806	11.27051
12.47596	-15.79806	11.27051
12.48016	-15.79806	11.27051
12.48436	-15.79806	11.27051
12.48856	-15.79806	11.27051
12.49275	-15.79806	11.27051
12.49695	-15.82004	11.27051
12.50130	-15.79806	11.27051
12.50553	-15.82004	11.27051
12.50973	-15.82004	11.27051
12.51392	-15.82004	11.27051
12.51811	-15.82004	11.27051
12.52230	-15.82004	11.27051
12.52648	-15.82004	11.27051
12.53084	-15.84201	11.27051
12.53506	-15.84201	11.27051
12.53927	-15.84201	11.27051
12.54347	-15.82004	11.27051
12.54767	-15.82004	11.27051
12.55197	-15.84201	11.27051
12.55615	-15.84201	11.27051
12.56100	-15.84201	11.27051
12.56525	-15.84201	11.27051
12.56945	-15.84201	11.27051
12.57366	-15.84201	11.27051
12.57786	-15.84201	11.27051
12.58205	-15.84201	11.27051
12.58623	-15.84201	11.27051
12.59048	-15.84201	11.27051
12.59482	-15.84201	11.27051
12.59905	-15.84201	11.27051
12.60326	-15.84201	11.27051
12.60749	-15.86398	11.27051
12.61169	-15.86398	11.27051
12.61590	-15.84201	11.27051
12.62009	-15.86398	11.27051
12.62442	-15.86398	11.27051
12.62864	-15.86398	11.27051
12.63284	-15.86398	11.27051
12.63703	-15.86398	11.27051
12.64123	-15.86398	11.27051
12.64543	-15.86398	11.27051
12.64963	-15.86398	11.27051
12.65406	-15.86398	11.27051
12.65828	-15.86398	11.27051
12.66247	-15.86398	11.27051
12.66667	-15.86398	11.27051
12.67086	-15.86398	11.27051
12.67505	-15.86398	11.27051
12.67925	-15.86398	11.27051
12.68364	-15.84201	11.27051
12.68788	-15.84201	11.27051
12.69208	-15.84201	11.27051
12.69627	-15.86398	11.27051
12.70046	-15.84201	11.27051
12.70466	-15.84201	11.27051
12.70885	-15.84201	11.27051
12.71309	-15.84201	11.27051
12.71736	-15.86398	11.27051
12.72156	-15.84201	11.27051
12.72576	-15.86398	11.27051
12.72995	-15.84201	11.27051
12.73414	-15.84201	11.27051
12.73833	-15.84201	11.27051
12.74251	-15.84201	11.27051
12.74681	-15.84201	11.27051
12.75101	-15.84201	11.27051
12.75532	-15.84201	11.27051
12.75950	-15.84201	11.27051
12.76368	-15.84201	11.27051
12.76787	-15.84201	11.27051
12.77205	-15.84201	11.27051
12.77636	-15.84201	11.27051
12.78056	-15.84201	11.27051
12.78475	-15.84201	11.27051
12.78894	-15.84201	11.27051
12.79313	-15.84201	11.27051
12.79731	-15.84201	11.27051
12.80150	-15.82004	11.27051
12.80580	-15.84201	11.27051
12.81004	-15.84201	11.27051
12.81424	-15.82004	11.27051
12.81843	-15.82004	11.27051
12.82263	-15.84201	11.27051
12.82682	-15.82004	11.27051
12.83101	-15.82004	11.27051
12.83524	-15.82004	11.27051
12.83951	-15.82004	11.27051
12.84369	-15.82004	11.27051
12.84788	-15.82004	11.27051
12.85206	-15.82004	11.27051
12.85636	-15.82004	11.27051
12.86054	-15.82004	11.27051
12.86473	-15.82004	11.27051
12.86906	-15.82004	11.27051
12.87327	-15.82004	11.27051
12.87746	-15.79806	11.27051
12.88165	-15.82004	11.27051
12.88584	-15.79806	11.27051
12.89003	-15.82004	11.27051
12.89421	-15.82004	11.27051
12.89851	-15.82004	11.27051
12.90273	-15.79806	11.27051
12.90692	-15.79806	11.27051
12.91111	-15.79806	11.27051
12.91530	-15.79806	11.27051
12.91948	-15.79806	11.27051
12.92368	-15.79806	11.27051
12.92798	-15.79806	11.27051
12.93221	-15.79806	11.27051
12.93641	-15.79806	11.27051
12.94060	-15.82004	11.27051
12.94481	-15.79806	11.27051
12.94900	-15.79806	11.27051
12.95319	-15.79806	11.27051
12.95754	-15.79806	11.27051
12.96180	-15.79806	11.27051
12.96600	-15.82004	11.27051
12.97019	-15.79806	11.27051
12.97438	-15.79806	11.27051
12.97857	-15.79806	11.27051
12.98276	-15.79806	11.27051
12.98694	-15.79806	11.27051
12.99124	-15.79806	11.27051
12.99545	-15.79806	11.27051
12.99964	-15.79806	11.27051
13.00383	-15.79806	11.27051
13.00802	-15.79806	11.27051
13.01220	-15.79806	11.27051
13.01639	-15.79806	11.27051
13.02069	-15.79806	11.27051
13.02490	-15.79806	11.27051
13.02909	-15.79806	11.27051
13.03328	-15.79806	11.27051
13.03746	-15.79806	11.27051
13.04165	-15.79806	11.27051
13.04585	-15.79806	11.27051
13.05017	-15.77609	11.27051
13.05441	-15.77609	11.27051
13.05872	-15.79806	11.27051
13.06291	-15.77609	11.27051
13.06710	-15.77609	11.27051
13.07128	-15.79806	11.27051
13.07547	-15.79806	11.27051
13.07972	-15.79806	11.27051
13.08398	-15.79806	11.27051
13.08818	-15.77609	11.27051
13.09237	-15.79806	11.27051
13.09656	-15.79806	11.27051
13.10075	-15.79806	11.27051
13.10493	-15.79806	11.27051
13.10912	-15.79806	11.27051
13.11341	-15.77609	11.27051
13.11765	-15.79806	11.27051
13.12185	-15.79806	11.27051
13.12604	-15.79806	11.27051
13.13022	-15.77609	11.27051
13.13441	-15.77609	11.27051
13.13860	-15.77609	11.27051
13.14291	-15.79806	11.27051
13.14712	-15.77609	11.27051
13.15131	-15.77609	11.27051
13.15550	-15.77609	11.27051
13.15978	-15.77609	11.27051
13.16397	-15.77609	11.27051
13.16816	-15.77609	11.27051
13.17246	-15.77609	11.27051
13.17670	-15.79806	11.27051
13.18089	-15.79806	11.27051
13.18509	-15.77609	11.27051
13.18928	-15.79806	11.27051
13.19347	-15.77609	11.27051
13.19766	-15.77609	11.27051
13.20190	-15.77609	11.27051
13.20618	-15.77609	11.27051
13.21038	-15.77609	11.27051
13.21457	-15.77609	11.27051
13.21876	-15.77609	11.27051
13.22294	-15.77609	11.27051
13.22713	-15.77609	11.27051
13.23132	-15.77609	11.27051
13.23562	-15.77609	11.27051
13.23983	-15.77609	11.27051
13.24402	-15.77609	11.27051
13.24821	-15.77609	11.27051
13.25239	-15.77609	11.27051
13.25658	-15.77609	11.27051
13.26087	-15.77609	11.27051
13.26517	-15.77609	11.27051
13.26938	-15.77609	11.27051
13.27357	-15.77609	11.27051
13.27776	-15.77609	11.27051
13.28195	-15.77609	11.27051
13.28613	-15.77609	11.27051
13.29032	-15.77609	11.27051
13.29461	-15.77609	11.27051
13.29884	-15.77609	11.27051
13.30303	-15.77609	11.27051
13.30722	-15.77609	11.27051
13.31141	-15.77609	11.27051
13.31560	-15.77609	11.27051
13.31979	-15.77609	11.27051
13.32404	-15.77609	11.27051
13.32831	-15.77609	11.27051
13.33251	-15.75412	11.27051
13.33670	-15.77609	11.27051
13.34089	-15.77609	11.27051
13.34507	-15.77609	11.27051
13.34927	-15.77609	11.27051
13.35346	-15.77609	11.27051
13.35776	-15.75412	11.27051
13.36207	-15.77609	11.27051
13.36625	-15.77609	11.27051
13.37044	-15.75412	11.27051
13.37463	-15.75412	11.27051
13.37882	-15.77609	11.27051
13.38300	-15.75412	11.27051
13.38730	-15.75412	11.27051
13.39151	-15.75412	11.27051
13.39568	-15.75412	11.27051
13.39987	-15.75412	11.27051
13.40405	-15.75412	11.27051
13.40824	-15.75412	11.27051
13.41243	-15.75412	11.27051
13.41673	-15.75412	11.27051
13.42098	-15.75412	11.27051
13.42518	-15.75412	11.27051
13.42937	-15.77609	11.27051
13.43357	-15.75412	11.27051
13.43776	-15.75412	11.27051
13.44195	-15.75412	11.27051
13.44619	-15.75412	11.27051
13.45048	-15.75412	11.27051
13.45469	-15.75412	11.27051
13.45888	-15.75412	11.27051
13.46319	-15.75412	11.27051
13.46739	-15.75412	11.27051
13.47158	-15.75412	11.27051
13.47577	-15.75412	11.27051
13.48007	-15.73214	11.27051
13.48430	-15.75412	11.27051
13.48853	-15.73214	11.27051
13.49272	-15.75412	11.27051
13.49692	-15.73214	11.27051
13.50111	-15.73214	11.27051
13.50529	-15.73214	11.27051
13.50960	-15.73214	11.27051
13.51381	-15.73214	11.27051
13.51800	-15.73214	11.27051
13.52219	-15.73214	11.27051
13.52638	-15.73214	11.27051
13.53057	-15.73214	11.27051
13.53476	-15.73214	11.27051
13.53907	-15.73214	11.27051
13.54331	-15.73214	11.27051
13.54750	-15.71017	11.27051
13.55169	-15.73214	11.27051
13.55589	-15.73214	11.27051
13.56008	-15.71017	11.27051
13.56439	-15.71017	11.27051
13.56864	-15.71017	11.27051
13.57292	-15.71017	11.27051
13.57713	-15.71017	11.27051
13.58132	-15.71017	11.27051
13.58551	-15.71017	11.27051
13.58969	-15.71017	11.27051
13.59388	-15.71017	11.27051
13.59807	-15.71017	11.27051
13.60236	-15.71017	11.27051
13.60657	-15.71017	11.27051
13.61076	-15.68820	11.27051
13.61494	-15.68820	11.27051
13.61913	-15.68820	11.27051
13.62332	-15.68820	11.27051
13.62750	-15.68820	11.27051
13.63179	-15.68820	11.27051
13.63600	-15.68820	11.27051
13.64019	-15.68820	11.27051
13.64438	-15.66623	11.27051
13.64857	-15.68820	11.27051
13.65275	-15.66623	11.27051
13.65694	-15.66623	11.27051
13.66124	-15.66623	11.27051
13.66559	-15.66623	11.27051
13.66978	-15.66623	11.27051
13.67398	-15.66623	11.27051
13.67817	-15.64425	11.27051
13.68236	-15.64425	11.27051
13.68655	-15.64425	11.27051
13.69079	-15.64425	11.27051
13.69506	-15.64425	11.27051
13.69926	-15.64425	11.27051
13.70345	-15.62228	11.27051
13.70765	-15.62228	11.27051
13.71184	-15.62228	11.27051
13.71603	-15.62228	11.27051
13.72021	-15.62228	11.27051
13.72451	-15.60031	11.27051
13.72871	-15.60031	11.27051
13.73290	-15.60031	11.27051
13.73709	-15.60031	11.27051
13.74127	-15.60031	11.27051
13.74546	-15.60031	11.27051
13.74965	-15.57834	11.27051
13.75395	-15.57834	11.27051
13.75816	-15.57834	11.27051
13.76235	-15.57834	11.27051
13.76664	-15.57834	11.27051
13.77083	-15.57834	11.27051
13.77501	-15.55636	11.27051
13.77920	-15.55636	11.27051
13.78349	-15.53439	11.27051
13.78772	-15.53439	11.27051
13.79192	-15.53439	11.27051
13.79611	-15.53439	11.27051
13.80031	-15.51242	11.27051
13.80449	-15.51242	11.27051
13.80868	-15.51242	11.27051
13.81292	-15.51242	11.27051
13.81718	-15.51242	11.27051
13.82138	-15.49045	11.27051
13.82557	-15.49045	11.27051
13.82976	-15.49045	11.27051
13.83394	-15.46847	11.27051
13.83813	-15.46847	11.27051
13.84232	-15.46847	11.27051
13.84661	-15.46847	11.27051
13.85082	-15.46847	11.27051
13.85501	-15.44650	11.27051
13.85919	-15.44650	11.27051
13.86338	-15.44650	11.27051
13.86768	-15.44650	11.27051
13.87187	-15.42453	11.27051
13.87617	-15.42453	11.27051
13.88037	-15.40256	11.27051
13.88456	-15.40256	11.27051
13.88875	-15.40256	11.27051
13.89294	-15.38058	11.27051
13.89712	-15.38058	11.27051
13.90131	-15.38058	11.27051
13.90563	-15.38058	11.27051
13.90987	-15.35861	11.27051
13.91407	-15.35861	11.27051
13.91826	-15.35861	11.27051
13.92246	-15.33664	11.27051
13.92665	-15.33664	11.27051
13.93084	-15.33664	11.27051
13.93508	-15.31466	11.27051
13.93936	-15.29269	11.27051
13.94357	-15.29269	11.27051
13.94776	-15.29269	11.27051
13.95195	-15.29269	11.27051
13.95614	-15.27072	11.27051
13.96034	-15.27072	11.27051
13.96453	-15.27072	11.27051
13.96895	-15.24875	11.27051
13.97316	-15.24875	11.27051
13.97735	-15.24875	11.27051
13.98155	-15.24875	11.27051
13.98573	-15.22677	11.27051
13.98992	-15.22677	11.27051
13.99410	-15.20480	11.27051
13.99840	-15.20480	11.27051
14.00261	-15.20480	11.27051
14.00681	-15.20480	11.27051
14.01099	-15.18283	11.27051
14.01518	-15.18283	11.27051
14.01937	-15.18283	11.27051
14.02356	-15.18283	11.27051
14.02786	-15.16086	11.27051
14.03210	-15.13888	11.27051
14.03629	-15.13888	11.27051
14.04048	-15.13888	11.27051
14.04468	-15.13888	11.27051
14.04887	-15.13888	11.27051
14.05306	-15.13888	11.27051
14.05731	-15.11691	11.27051
14.06158	-15.11691	11.27051
14.06578	-15.11691	11.27051
14.07007	-15.09494	11.27051
14.07426	-15.09494	11.27051
14.07844	-15.09494	11.27051
14.08263	-15.07297	11.27051
14.08681	-15.07297	11.27051
14.09111	-15.07297	11.27051
14.09531	-15.07297	11.27051
14.09950	-15.07297	11.27051
14.10367	-15.05099	11.27051
14.10786	-15.05099	11.27051
14.11205	-15.05099	11.27051
14.11624	-15.05099	11.27051
14.12054	-15.05099	11.27051
14.12475	-15.02902	11.27051
14.12894	-15.02902	11.27051
14.13312	-15.02902	11.27051
14.13731	-15.02902	11.27051
14.14149	-15.02902	11.27051
14.14568	-15.00705	11.27051
14.14996	-15.00705	11.27051
14.15420	-15.00705	11.27051
14.15839	-15.00705	11.27051
14.16258	-15.00705	11.27051
14.16677	-14.98507	11.27051
14.17106	-15.00705	11.27051
14.17525	-14.98507	11.27051
14.17949	-14.98507	11.27051
14.18376	-14.98507	11.27051
14.18796	-14.98507	11.27051
14.19215	-14.98507	11.27051
14.19633	-14.98507	11.27051
14.20052	-14.98507	11.27051
14.20471	-14.98507	11.27051
14.20890	-14.98507	11.27051
14.21319	-14.98507	11.27051
14.21739	-14.98507	11.27051
14.22158	-14.98507	11.27051
14.22577	-14.96310	11.27051
14.22996	-14.98507	11.27051
14.23414	-14.98507	11.27051
14.23833	-14.96310	11.27051
14.24263	-14.96310	11.27051
14.24683	-14.96310	11.27051
14.25102	-14.96310	11.27051
14.25521	-14.98507	11.27051
14.25940	-14.98507	11.27051
14.26359	-14.98507	11.27051
14.26778	-14.98507	11.27051
14.27226	-14.98507	11.27051
14.27648	-14.96310	11.27051
14.28067	-14.98507	11.27051
14.28487	-14.98507	11.27051
14.28906	-14.98507	11.27051
14.29325	-14.98507	11.27051
14.29744	-14.98507	11.27051
14.30168	-14.98507	11.27051
14.30595	-14.98507	11.27051
14.31015	-14.98507	11.27051
14.31433	-14.98507	11.27051
14.31852	-14.98507	11.27051
14.32270	-14.98507	11.27051
14.32689	-15.00705	11.27051
14.33107	-14.98507	11.27051
14.33537	-15.00705	11.27051
14.33959	-15.00705	11.27051
14.34378	-15.00705	11.27051
14.34797	-15.00705	11.27051
14.35216	-15.00705	11.27051
14.35634	-15.00705	11.27051
14.36053	-15.02902	11.27051
14.36483	-15.02902	11.27051
14.36903	-15.02902	11.27051
14.37333	-15.02902	11.27051
14.37752	-15.02902	11.27051
14.38170	-15.02902	11.27051
14.38589	-15.02902	11.27051
14.39008	-15.02902	11.27051
14.39437	-15.05099	11.27051
14.39860	-15.05099	11.27051
14.40280	-15.05099	11.27051
14.40699	-15.05099	11.27051
14.41118	-15.07297	11.27051
14.41536	-15.07297	11.27051
14.41956	-15.07297	11.27051
14.42381	-15.07297	11.27051
14.42808	-15.09494	11.27051
14.43228	-15.09494	11.27051
14.43647	-15.09494	11.27051
14.44066	-15.09494	11.27051
14.44485	-15.09494	11.27051
14.44903	-15.11691	11.27051
14.45322	-15.11691	11.27051
14.45753	-15.13888	11.27051
14.46173	-15.13888	11.27051
14.46594	-15.13888	11.27051
14.47013	-15.13888	11.27051
14.47442	-15.16086	11.27051
14.47861	-15.16086	11.27051
14.48280	-15.16086	11.27051
14.48711	-15.18283	11.27051
14.49133	-15.18283	11.27051
14.49552	-15.18283	11.27051
14.49968	-15.18283	11.27051
14.50387	-15.20480	11.27051
14.50805	-15.20480	11.27051
14.51224	-15.22677	11.27051
14.51655	-15.22677	11.27051
14.52080	-15.22677	11.27051
14.52500	-15.22677	11.27051
14.52919	-15.24875	11.27051
14.53338	-15.24875	11.27051
14.53757	-15.27072	11.27051
14.54176	-15.29269	11.27051
14.54601	-15.29269	11.27051
14.55028	-15.29269	11.27051
14.55449	-15.31466	11.27051
14.55869	-15.31466	11.27051
14.56288	-15.33664	11.27051
14.56707	-15.33664	11.27051
14.57126	-15.33664	11.27051
14.57557	-15.33664	11.27051
14.57987	-15.35861	11.27051
14.58407	-15.35861	11.27051
14.58826	-15.38058	11.27051
14.59245	-15.40256	11.27051
14.59664	-15.40256	11.27051
14.60082	-15.40256	11.27051
14.60501	-15.40256	11.27051
14.60930	-15.42453	11.27051
14.61351	-15.42453	11.27051
14.61770	-15.44650	11.27051
14.62189	-15.44650	11.27051
14.62607	-15.46847	11.27051
14.63026	-15.46847	11.27051
14.63445	-15.46847	11.27051
14.63875	-15.49045	11.27051
14.64298	-15.51242	11.27051
14.64718	-15.51242	11.27051
14.65137	-15.51242	11.27051
14.65558	-15.51242	11.27051
14.65976	-15.53439	11.27051
14.66395	-15.53439	11.27051
14.66821	-15.55636	11.27051
14.67248	-15.57834	11.27051
14.67678	-15.60031	11.27051
14.68097	-15.60031	11.27051
14.68516	-15.60031	11.27051
14.68934	-15.60031	11.27051
14.69353	-15.62228	11.27051
14.69771	-15.64425	11.27051
14.70205	-15.64425	11.27051
14.70626	-15.64425	11.27051
14.71045	-15.66623	11.27051
14.71464	-15.66623	11.27051
14.71883	-15.68820	11.27051
14.72302	-15.71017	11.27051
14.72720	-15.71017	11.27051
14.73151	-15.73214	11.27051
14.73569	-15.73214	11.27051
14.73988	-15.73214	11.27051
14.74407	-15.75412	11.27051
14.74825	-15.77609	11.27051
14.75244	-15.77609	11.27051
14.75663	-15.77609	11.27051
14.76092	-15.79806	11.27051
14.76515	-15.79806	11.27051
14.76935	-15.82004	11.27051
14.77354	-15.84201	11.27051
14.77785	-15.84201	11.27051
14.78203	-15.86398	11.27051
14.78622	-15.86398	11.27051
14.79046	-15.88595	11.27051
14.79472	-15.88595	11.27051
14.79892	-15.88595	11.27051
14.80311	-15.90793	11.27051
14.80730	-15.90793	11.27051
14.81149	-15.90793	11.27051
14.81568	-15.92990	11.27051
14.81987	-15.95187	11.27051
14.82420	-15.97384	11.27051
14.82842	-15.97384	11.27051
14.83261	-15.99582	11.27051
14.83680	-15.99582	11.27051
14.84099	-15.99582	11.27051
14.84519	-16.01779	11.27051
14.84937	-16.03976	11.27051
14.85370	-16.03976	11.27051
14.85792	-16.06173	11.27051
14.86211	-16.06173	11.27051
14.86629	-16.06173	11.27051
14.87048	-16.08371	11.27051
14.87467	-16.08371	11.27051
14.87896	-16.10568	11.27051
14.88325	-16.12765	11.27051
14.88748	-16.14963	11.27051
14.89169	-16.14963	11.27051
14.89588	-16.14963	11.27051
14.90007	-16.14963	11.27051
14.90426	-16.17160	11.27051
14.90845	-16.19357	11.27051
14.91268	-16.19357	11.27051
14.91695	-16.21554	11.27051
14.92115	-16.21554	11.27051
14.92534	-16.23752	11.27051
14.92953	-16.23752	11.27051
14.93371	-16.25949	11.27051
14.93789	-16.25949	11.27051
14.94208	-16.25949	11.27051
14.94637	-16.28146	11.27051
14.95057	-16.28146	11.27051
14.95476	-16.30343	11.27051
14.95895	-16.30343	11.27051
14.96314	-16.32541	11.27051
14.96732	-16.32541	11.27051
14.97151	-16.34738	11.27051
14.97579	-16.36935	11.27051
14.98011	-16.36935	11.27051
14.98430	-16.39132	11.27051
14.98849	-16.39132	11.27051
14.99267	-16.41330	11.27051
14.99686	-16.41330	11.27051
15.00146	-16.41330	8.02816
15.00578	-16.43527	8.02816
15.01003	-16.43527	8.02816
15.01422	-16.45724	8.02816
15.01840	-16.45724	8.02816
15.02259	-16.45724	8.02816
15.02677	-16.47922	8.02816
15.03095	-16.47922	8.02816
15.03520	-16.50119	8.02816
15.03948	-16.50119	8.02816
15.04369	-16.52316	8.02816
15.04787	-16.52316	8.02816
15.05206	-16.52316	8.02816
15.05625	-16.54513	8.02816
15.06043	-16.56711	8.02816
15.06462	-16.56711	8.02816
15.06891	-16.56711	8.02816
15.07311	-16.58908	8.02816
15.07730	-16.58908	8.02816
15.08148	-16.58908	8.02816
15.08567	-16.58908	8.02816
15.08986	-16.61105	8.02816
15.09405	-16.61105	8.02816
15.09837	-16.63302	8.02816
15.10268	-16.63302	8.02816
15.10688	-16.63302	8.02816
15.11106	-16.63302	8.02816
15.11525	-16.65500	8.02816
15.11944	-16.65500	8.02816
15.12363	-16.65500	8.02816
15.12795	-16.67697	8.02816
15.13221	-16.67697	8.02816
15.13640	-16.67697	8.02816
15.14059	-16.65500	8.02816
15.14477	-16.67697	8.02816
15.14896	-16.67697	8.02816
15.15314	-16.67697	8.02816
15.15740	-16.67697	8.02816
15.16168	-16.67697	8.02816
15.16588	-16.69894	8.02816
15.17006	-16.67697	8.02816
15.17425	-16.69894	8.02816
15.17844	-16.69894	8.02816
15.18262	-16.69894	8.02816
15.18680	-16.69894	8.02816
15.19110	-16.69894	8.02816
15.19530	-16.67697	8.02816
15.19948	-16.69894	8.02816
15.20378	-16.69894	8.02816
15.20796	-16.69894	8.02816
15.21215	-16.67697	8.02816
15.21634	-16.67697	8.02816
15.22064	-16.67697	8.02816
15.22484	-16.67697	8.02816
15.22902	-16.67697	8.02816
15.23321	-16.65500	8.02816
15.23740	-16.67697	8.02816
15.24158	-16.65500	8.02816
15.24577	-16.65500	8.02816
15.25009	-16.65500	8.02816
15.25437	-16.63302	8.02816
15.25859	-16.63302	8.02816
15.26280	-16.63302	8.02816
15.26701	-16.63302	8.02816
15.27122	-16.61105	8.02816
15.27543	-16.61105	8.02816
15.27974	-16.61105	8.02816
15.28403	-16.58908	8.02816
15.28825	-16.58908	8.02816
15.29244	-16.56711	8.02816
15.29664	-16.56711	8.02816
15.30083	-16.54513	8.02816
15.30513	-16.54513	8.02816
15.30933	-16.52316	8.02816
15.31363	-16.52316	8.02816
15.31784	-16.52316	8.02816
15.32204	-16.50119	8.02816
15.32623	-16.50119	8.02816
15.33043	-16.47922	8.02816
15.33463	-16.45724	8.02816
15.33883	-16.43527	8.02816
15.34315	-16.43527	8.02816
15.34736	-16.43527	8.02816
15.35157	-16.41330	8.02816
15.35577	-16.39132	8.02816
15.35997	-16.39132	8.02816
15.36416	-16.39132	8.02816
15.36836	-16.34738	8.02816
15.37270	-16.34738	8.02816
15.37692	-16.32541	8.02816
15.38111	-16.32541	8.02816
15.38530	-16.30343	8.02816
15.38949	-16.28146	8.02816
15.39368	-16.28146	8.02816
15.39787	-16.25949	8.02816
15.40211	-16.23752	8.02816
15.40650	-16.23752	8.02816
15.41069	-16.19357	8.02816
15.41488	-16.19357	8.02816
15.41907	-16.17160	8.02816
15.42326	-16.17160	8.02816
15.42745	-16.14963	8.02816
15.43165	-16.12765	8.02816
15.43595	-16.12765	8.02816
15.44017	-16.08371	8.02816
15.44436	-16.06173	8.02816
15.44855	-16.06173	8.02816
15.45274	-16.03976	8.02816
15.45692	-16.01779	8.02816
15.46111	-15.99582	8.02816
15.46541	-15.97384	8.02816
15.46961	-15.97384	8.02816
15.47381	-15.95187	8.02816
15.47799	-15.92990	8.02816
15.48218	-15.90793	8.02816
15.48637	-15.88595	8.02816
15.49056	-15.86398	8.02816
15.49487	-15.86398	8.02816
15.49912	-15.84201	8.02816
15.50332	-15.82004	8.02816
15.50764	-15.79806	8.02816
15.51183	-15.75412	8.02816
15.51602	-15.73214	8.02816
15.52021	-15.71017	8.02816
15.52445	-15.71017	8.02816
15.52872	-15.68820	8.02816
15.53292	-15.66623	8.02816
15.53710	-15.64425	8.02816
15.54129	-15.60031	8.02816
15.54548	-15.60031	8.02816
15.54966	-15.55636	8.02816
15.55385	-15.55636	8.02816
15.55814	-15.53439	8.02816
15.56235	-15.49045	8.02816
15.56654	-15.46847	8.02816
15.57073	-15.44650	8.02816
15.57492	-15.44650	8.02816
15.57910	-15.40256	8.02816
15.58329	-15.40256	8.02816
15.58760	-15.38058	8.02816
15.59180	-15.33664	8.02816
15.59599	-15.31466	8.02816
15.60018	-15.29269	8.02816
15.60437	-15.29269	8.02816
15.60866	-15.27072	8.02816
15.61284	-15.22677	8.02816
15.61714	-15.20480	8.02816
15.62138	-15.16086	8.02816
15.62558	-15.13888	8.02816
15.62977	-15.11691	8.02816
15.63396	-15.11691	8.02816
15.63815	-15.09494	8.02816
15.64234	-15.05099	8.02816
15.64658	-15.02902	8.02816
15.65086	-14.98507	8.02816
15.65506	-14.98507	8.02816
15.65925	-14.96310	8.02816
15.66343	-14.94113	8.02816
15.66763	-14.91916	8.02816
15.67181	-14.89718	8.02816
15.67600	-14.87521	8.02816
15.68029	-14.83127	8.02816
15.68450	-14.83127	8.02816
15.68869	-14.78732	8.02816
15.69287	-14.76535	8.02816
15.69706	-14.74338	8.02816
15.70125	-14.69943	8.02816
15.70544	-14.67746	8.02816
15.70984	-14.67746	8.02816
15.71405	-14.65548	8.02816
15.71823	-14.61154	8.02816
15.72242	-14.58957	8.02816
15.72661	-14.54562	8.02816
15.73080	-14.54562	8.02816
15.73498	-14.52365	8.02816
15.73931	-14.50168	8.02816
15.74355	-14.45773	8.02816
15.74775	-14.43576	8.02816
15.75193	-14.39181	8.02816
15.75612	-14.36984	8.02816
15.76033	-14.36984	8.02816
15.76452	-14.34787	8.02816
15.76879	-14.32589	8.02816
15.77307	-14.28195	8.02816
15.77727	-14.23800	8.02816
15.78146	-14.21603	8.02816
15.78564	-14.21603	8.02816
15.78983	-14.17209	8.02816
15.79402	-14.15011	8.02816
15.79821	-14.12814	8.02816
15.80250	-14.08420	8.02816
15.80671	-14.06222	8.02816
15.81100	-14.01828	8.02816
15.81519	-14.01828	8.02816
15.81937	-13.99631	8.02816
15.82357	-13.95236	8.02816
15.82775	-13.93039	8.02816
15.83205	-13.88644	8.02816
15.83626	-13.88644	8.02816
15.84046	-13.82052	8.02816
15.84465	-13.82052	8.02816
15.84884	-13.79855	8.02816
15.85302	-13.75461	8.02816
15.85721	-13.73263	8.02816
15.86153	-13.68869	8.02816
15.86577	-13.68869	8.02816
15.86997	-13.64474	8.02816
15.87416	-13.62277	8.02816
15.87836	-13.57882	8.02816
15.88255	-13.55685	8.02816
15.88674	-13.51291	8.02816
15.89098	-13.49093	8.02816
15.89525	-13.49093	8.02816
15.89946	-13.44699	8.02816
15.90366	-13.40304	8.02816
15.90785	-13.38107	8.02816
15.91216	-13.33713	8.02816
15.91635	-13.31515	8.02816
15.92054	-13.31515	8.02816
15.92484	-13.27121	8.02816
15.92905	-13.24923	8.02816
15.93324	-13.20529	8.02816
15.93742	-13.16134	8.02816
15.94161	-13.13937	8.02816
15.94580	-13.13937	8.02816
15.94998	-13.09543	8.02816
15.95428	-13.07345	8.02816
15.95849	-13.02951	8.02816
15.96268	-12.98556	8.02816
15.96686	-12.96359	8.02816
15.97105	-12.96359	8.02816
15.97524	-12.91964	8.02816
15.97943	-12.89767	8.02816
15.98375	-12.85373	8.02816
15.98799	-12.80978	8.02816
15.99219	-12.76584	8.02816
15.99639	-12.76584	8.02816
16.00058	-12.74386	8.02816
16.00477	-12.72189	8.02816
16.00896	-12.65597	8.02816
16.01331	-12.65597	8.02816
16.01759	-12.61203	8.02816
16.02179	-12.59006	8.02816
16.02598	-12.59006	8.02816
16.03018	-12.52414	8.02816
16.03437	-12.50216	8.02816
16.03855	-12.48019	8.02816
16.04274	-12.43625	8.02816
16.04703	-12.43625	8.02816
16.05124	-12.39230	8.02816
16.05543	-12.37033	8.02816
16.05963	-12.32638	8.02816
16.06381	-12.30441	8.02816
16.06800	-12.28244	8.02816
16.07218	-12.23849	8.02816
16.07648	-12.23849	8.02816
16.08069	-12.19455	8.02816
16.08487	-12.17257	8.02816
16.08906	-12.12863	8.02816
16.09325	-12.08468	8.02816
16.09743	-12.08468	8.02816
16.10162	-12.04074	8.02816
16.10594	-12.04074	8.02816
16.11019	-11.99679	8.02816
16.11450	-11.97482	8.02816
16.11869	-11.93088	8.02816
16.12288	-11.90890	8.02816
16.12707	-11.90890	8.02816
16.13126	-11.86496	8.02816
16.13550	-11.84298	8.02816
16.13976	-11.79904	8.02816
16.14396	-11.77707	8.02816
16.14815	-11.73312	8.02816
16.15234	-11.71115	8.02816
16.15654	-11.71115	8.02816
16.16073	-11.68918	8.02816
16.16492	-11.64523	8.02816
16.16922	-11.62326	8.02816
16.17343	-11.57931	8.02816
16.17763	-11.55734	8.02816
16.18183	-11.51339	8.02816
16.18602	-11.51339	8.02816
16.19021	-11.49142	8.02816
16.19440	-11.46945	8.02816
16.19870	-11.42550	8.02816
16.20291	-11.38156	8.02816
16.20710	-11.35959	8.02816
16.21130	-11.35959	8.02816
16.21561	-11.33761	8.02816
16.21980	-11.29367	8.02816
16.22399	-11.27170	8.02816
16.22831	-11.24972	8.02816
16.23256	-11.24972	8.02816
16.23676	-11.20578	8.02816
16.24103	-11.18381	8.02816
16.24525	-11.16183	8.02816
16.24945	-11.11789	8.02816
16.25364	-11.09591	8.02816
16.25790	-11.09591	8.02816
16.26218	-11.05197	8.02816
16.26639	-11.03000	8.02816
16.27058	-11.00802	8.02816
16.27478	-10.98605	8.02816
16.27897	-10.96408	8.02816
16.28317	-10.92013	8.02816
16.28736	-10.92013	8.02816
16.29168	-10.89816	8.02816
16.29589	-10.87619	8.02816
16.30008	-10.85422	8.02816
16.30428	-10.83224	8.02816
16.30847	-10.81027	8.02816
16.31266	-10.78830	8.02816
16.31696	-10.78830	8.02816
16.32127	-10.74435	8.02816
16.32548	-10.72238	8.02816
16.32966	-10.70041	8.02816
16.33385	-10.67843	8.02816
16.33804	-10.67843	8.02816
16.34223	-10.65646	8.02816
16.34642	-10.63449	8.02816
16.35071	-10.61252	8.02816
16.35495	-10.59054	8.02816
16.35914	-10.56857	8.02816
16.36334	-10.54660	8.02816
16.36753	-10.54660	8.02816
16.37168	-10.52463	8.02816
16.37587	-10.50265	8.02816
16.38013	-10.48068	8.02816
16.38440	-10.45871	8.02816
16.38861	-10.45871	8.02816
16.39280	-10.41476	8.02816
16.39698	-10.41476	8.02816
16.40117	-10.41476	8.02816
16.40536	-10.39279	8.02816
16.40955	-10.37082	8.02816
16.41387	-10.37082	8.02816
16.41817	-10.32687	8.02816
16.42237	-10.32687	8.02816
16.42656	-10.32687	8.02816
16.43074	-10.30490	8.02816
16.43493	-10.30490	8.02816
16.43912	-10.28293	8.02816
16.44343	-10.26095	8.02816
16.44765	-10.26095	8.02816
16.45184	-10.26095	8.02816
16.45603	-10.23898	8.02816
16.46022	-10.21701	8.02816
16.46441	-10.19504	8.02816
16.46861	-10.19504	8.02816
16.47296	-10.19504	8.02816
16.47722	-10.17306	8.02816
16.48142	-10.17306	8.02816
16.48561	-10.17306	8.02816
16.48982	-10.12912	8.02816
16.49401	-10.12912	8.02816
16.49821	-10.12912	8.02816
16.50245	-10.12912	8.02816
16.50673	-10.10714	8.02816
16.51093	-10.10714	8.02816
16.51512	-10.10714	8.02816
16.51943	-10.08517	8.02816
16.52363	-10.06320	8.02816
16.52782	-10.06320	8.02816
16.53201	-10.08517	8.02816
16.53631	-10.06320	8.02816
16.54052	-10.06320	8.02816
16.54472	-10.06320	8.02816
16.54891	-10.06320	8.02816
16.55310	-10.04123	8.02816
16.55729	-10.04123	8.02816
16.56149	-10.01925	8.02816
16.56580	-10.01925	8.02816
16.57002	-10.04123	8.02816
16.57421	-10.01925	8.02816
16.57840	-10.01925	8.02816
16.58258	-10.04123	8.02816
16.58677	-10.01925	8.02816
16.59096	-10.01925	8.02816
16.59526	-10.01925	8.02816
16.59950	-10.01925	8.02816
16.60369	-10.01925	8.02816
16.60789	-10.01925	8.02816
16.61208	-9.99728	8.02816
16.61627	-10.01925	8.02816
16.62058	-10.01925	8.02816
16.62482	-10.01925	8.02816
16.62910	-10.01925	8.02816
16.63330	-10.01925	8.02816
16.63748	-9.99728	8.02816
16.64167	-10.01925	8.02816
16.64586	-10.01925	8.02816
16.65005	-10.01925	8.02816
16.65423	-10.01925	8.02816
16.65853	-10.01925	8.02816
16.66273	-10.01925	8.02816
16.66692	-10.04123	8.02816
16.67111	-10.01925	8.02816
16.67530	-10.04123	8.02816
16.67949	-10.04123	8.02816
16.68369	-10.04123	8.02816
16.68799	-10.04123	8.02816
16.69220	-10.06320	8.02816
16.69639	-10.04123	8.02816
16.70058	-10.06320	8.02816
16.70477	-10.06320	8.02816
16.70896	-10.08517	8.02816
16.71315	-10.08517	8.02816
16.71746	-10.08517	8.02816
16.72182	-10.08517	8.02816
16.72602	-10.10714	8.02816
16.73021	-10.08517	8.02816
16.73440	-10.08517	8.02816
16.73859	-10.12912	8.02816
16.74278	-10.10714	8.02816
16.74703	-10.12912	8.02816
16.75130	-10.12912	8.02816
16.75550	-10.15109	8.02816
16.75968	-10.15109	8.02816
16.76387	-10.15109	8.02816
16.76806	-10.15109	8.02816
16.77225	-10.17306	8.02816
16.77643	-10.17306	8.02816
16.78073	-10.19504	8.02816
16.78493	-10.21701	8.02816
16.78912	-10.21701	8.02816
16.79331	-10.21701	8.02816
16.79749	-10.23898	8.02816
16.80168	-10.23898	8.02816
16.80587	-10.26095	8.02816
16.81017	-10.26095	8.02816
16.81437	-10.26095	8.02816
16.81856	-10.28293	8.02816
16.82285	-10.30490	8.02816
16.82704	-10.30490	8.02816
16.83123	-10.32687	8.02816
16.83542	-10.32687	8.02816
16.83972	-10.32687	8.02816
16.84396	-10.34884	8.02816
16.84815	-10.34884	8.02816
16.85235	-10.37082	8.02816
16.85654	-10.39279	8.02816
16.86074	-10.39279	8.02816
16.86492	-10.41476	8.02816
16.86922	-10.41476	8.02816
16.87350	-10.43673	8.02816
16.87770	-10.43673	8.02816
16.88189	-10.48068	8.02816
16.88608	-10.45871	8.02816
16.89028	-10.50265	8.02816
16.89446	-10.50265	8.02816
16.89865	-10.50265	8.02816
16.90294	-10.52463	8.02816
16.90715	-10.52463	8.02816
16.91134	-10.54660	8.02816
16.91553	-10.59054	8.02816
16.91967	-10.59054	8.02816
16.92396	-10.59054	8.02816
16.92815	-10.61252	8.02816
16.93245	-10.63449	8.02816
16.93666	-10.65646	8.02816
16.94085	-10.67843	8.02816
16.94503	-10.67843	8.02816
16.94922	-10.70041	8.02816
16.95341	-10.72238	8.02816
16.95759	-10.72238	8.02816
16.96190	-10.74435	8.02816
16.96614	-10.76632	8.02816
16.97034	-10.78830	8.02816
16.97453	-10.78830	8.02816
16.97873	-10.81027	8.02816
16.98292	-10.83224	8.02816
16.98712	-10.85422	8.02816
16.99136	-10.87619	8.02816
16.99565	-10.89816	8.02816
16.99985	-10.89816	8.02816
17.00404	-10.92013	8.02816
17.00823	-10.94211	8.02816
17.01242	-10.96408	8.02816
17.01660	-10.98605	8.02816
17.02079	-10.98605	8.02816
17.02520	-11.00802	8.02816
17.02940	-11.03000	8.02816
17.03358	-11.07394	8.02816
17.03777	-11.09591	8.02816
17.04196	-11.09591	8.02816
17.04615	-11.13986	8.02816
17.05033	-11.13986	8.02816
17.05463	-11.13986	8.02816
17.05884	-11.18381	8.02816
17.06304	-11.20578	8.02816
17.06722	-11.22775	8.02816
17.07141	-11.24972	8.02816
17.07561	-11.27170	8.02816
17.07979	-11.27170	8.02816
17.08410	-11.29367	8.02816
17.08834	-11.31564	8.02816
17.09253	-11.35959	8.02816
17.09673	-11.38156	8.02816
17.10092	-11.38156	8.02816
17.10511	-11.40353	8.02816
17.10930	-11.44748	8.02816
17.11354	-11.44748	8.02816
17.11782	-11.49142	8.02816
17.12202	-11.49142	8.02816
17.12631	-11.53537	8.02816
17.13050	-11.53537	8.02816
17.13469	-11.55734	8.02816
17.13887	-11.57931	8.02816
17.14306	-11.62326	8.02816
17.14736	-11.64523	8.02816
17.15158	-11.66720	8.02816
17.15578	-11.66720	8.02816
17.15997	-11.68918	8.02816
17.16415	-11.71115	8.02816
17.16834	-11.75509	8.02816
17.17253	-11.77707	8.02816
17.17684	-11.79904	8.02816
17.18104	-11.82101	8.02816
17.18523	-11.82101	8.02816
17.18942	-11.84298	8.02816
17.19361	-11.88693	8.02816
17.19780	-11.90890	8.02816
17.20199	-11.95285	8.02816
17.20629	-11.95285	8.02816
17.21052	-11.95285	8.02816
17.21473	-11.99679	8.02816
17.21893	-12.01877	8.02816
17.22313	-12.04074	8.02816
17.22743	-12.06271	8.02816
17.23163	-12.08468	8.02816
17.23588	-12.08468	8.02816
17.24016	-12.12863	8.02816
17.24436	-12.15060	8.02816
17.24855	-12.19455	8.02816
17.25274	-12.21652	8.02816
17.25693	-12.23849	8.02816
17.26112	-12.23849	8.02816
17.26531	-12.26047	8.02816
17.26961	-12.28244	8.02816
17.27381	-12.32638	8.02816
17.27801	-12.34836	8.02816
17.28219	-12.34836	8.02816
17.28638	-12.37033	8.02816
17.29057	-12.39230	8.02816
17.29475	-12.41427	8.02816
17.29905	-12.45822	8.02816
17.30327	-12.45822	8.02816
17.30746	-12.48019	8.02816
17.31166	-12.48019	8.02816
17.31585	-12.52414	8.02816
17.32003	-12.54611	8.02816
17.32422	-12.59006	8.02816
17.32872	-12.59006	8.02816
17.33294	-12.61203	8.02816
17.33714	-12.63400	8.02816
17.34133	-12.63400	8.02816
17.34552	-12.65597	8.02816
17.34972	-12.69992	8.02816
17.35391	-12.72189	8.02816
17.35816	-12.74386	8.02816
17.36242	-12.76584	8.02816
17.36662	-12.76584	8.02816
17.37081	-12.78781	8.02816
17.37500	-12.80978	8.02816
17.37919	-12.83175	8.02816
17.38337	-12.87570	8.02816
17.38757	-12.87570	8.02816
17.39186	-12.89767	8.02816
17.39606	-12.89767	8.02816
17.40025	-12.94162	8.02816
17.40444	-12.94162	8.02816
17.40864	-12.98556	8.02816
17.41283	-12.98556	8.02816
17.41702	-13.00754	8.02816
17.42133	-13.00754	8.02816
17.42554	-13.02951	8.02816
17.42984	-13.07345	8.02816
17.43402	-13.07345	8.02816
17.43822	-13.09543	8.02816
17.44241	-13.13937	8.02816
17.44659	-13.13937	8.02816
17.45091	-13.13937	8.02816
17.45516	-13.16134	8.02816
17.45936	-13.18332	8.02816
17.46356	-13.20529	8.02816
17.46777	-13.22726	8.02816
17.47197	-13.22726	8.02816
17.47620	-13.22726	8.02816
17.48047	-13.27121	8.02816
17.48478	-13.27121	8.02816
17.48899	-13.29318	8.02816
17.49319	-13.31515	8.02816
17.49739	-13.33713	8.02816
17.50158	-13.33713	8.02816
17.50576	-13.35910	8.02816
17.50995	-13.35910	8.02816
17.51425	-13.38107	8.02816
17.51846	-13.40304	8.02816
17.52265	-13.40304	8.02816
17.52684	-13.42502	8.02816
17.53113	-13.44699	8.02816
17.53531	-13.44699	8.02816
17.53950	-13.49093	8.02816
17.54380	-13.49093	8.02816
17.54801	-13.51291	8.02816
17.55220	-13.51291	8.02816
17.55639	-13.51291	8.02816
17.56058	-13.53488	8.02816
17.56477	-13.55685	8.02816
17.56896	-13.55685	8.02816
17.57327	-13.57882	8.02816
17.57751	-13.57882	8.02816
17.58171	-13.57882	8.02816
17.58590	-13.60080	8.02816
17.59010	-13.62277	8.02816
17.59429	-13.62277	8.02816
17.59848	-13.64474	8.02816
17.60273	-13.64474	8.02816
17.60701	-13.64474	8.02816
17.61121	-13.66672	8.02816
17.61541	-13.68869	8.02816
17.61962	-13.68869	8.02816
17.62381	-13.71066	8.02816
17.62800	-13.71066	8.02816
17.63229	-13.71066	8.02816
17.63658	-13.73263	8.02816
17.64078	-13.73263	8.02816
17.64497	-13.73263	8.02816
17.64916	-13.75461	8.02816
17.65334	-13.75461	8.02816
17.65753	-13.75461	8.02816
17.66172	-13.77658	8.02816
17.66602	-13.77658	8.02816
17.67023	-13.79855	8.02816
17.67442	-13.79855	8.02816
17.67860	-13.79855	8.02816
17.68279	-13.82052	8.02816
17.68698	-13.82052	8.02816
17.69116	-13.82052	8.02816
17.69545	-13.82052	8.02816
17.69970	-13.84250	8.02816
17.70390	-13.84250	8.02816
17.70809	-13.84250	8.02816
17.71228	-13.84250	8.02816
17.71647	-13.86447	8.02816
17.72067	-13.88644	8.02816
17.72491	-13.86447	8.02816
17.72918	-13.88644	8.02816
17.73348	-13.88644	8.02816
17.73767	-13.88644	8.02816
17.74185	-13.86447	8.02816
17.74604	-13.90841	8.02816
17.75023	-13.88644	8.02816
17.75442	-13.90841	8.02816
17.75872	-13.90841	8.02816
17.76293	-13.90841	8.02816
17.76712	-13.90841	8.02816
17.77131	-13.93039	8.02816
17.77550	-13.90841	8.02816
17.77968	-13.93039	8.02816
17.78386	-13.93039	8.02816
17.78816	-13.93039	8.02816
17.79237	-13.93039	8.02816
17.79656	-13.93039	8.02816
17.80074	-13.95236	8.02816
17.80493	-13.95236	8.02816
17.80912	-13.93039	8.02816
17.81330	-13.93039	8.02816
17.81761	-13.95236	8.02816
17.82185	-13.95236	8.02816
17.82605	-13.95236	8.02816
17.83024	-13.95236	8.02816
17.83454	-13.95236	8.02816
17.83873	-13.95236	8.02816
17.84293	-13.97433	8.02816
17.84717	-13.95236	8.02816
17.85144	-13.95236	8.02816
17.85566	-13.97433	8.02816
17.85985	-13.95236	8.02816
17.86404	-13.97433	8.02816
17.86822	-13.97433	8.02816
17.87242	-13.95236	8.02816
17.87661	-13.97433	8.02816
17.88090	-13.95236	8.02816
17.88510	-13.97433	8.02816
17.88929	-13.97433	8.02816
17.89348	-13.97433	8.02816
17.89767	-13.95236	8.02816
17.90185	-13.97433	8.02816
17.90604	-13.95236	8.02816
17.91034	-13.97433	8.02816
17.91454	-13.97433	8.02816
17.91873	-13.97433	8.02816
17.92292	-13.97433	8.02816
17.92711	-13.97433	8.02816
17.93129	-13.95236	8.02816
17.93560	-13.97433	8.02816
17.93989	-13.95236	8.02816
17.94413	-13.95236	8.02816
17.94832	-13.95236	8.02816
17.95252	-13.95236	8.02816
17.95671	-13.95236	8.02816
17.96091	-13.95236	8.02816
17.96510	-13.93039	8.02816
17.96934	-13.93039	8.02816
17.97361	-13.95236	8.02816
17.97781	-13.95236	8.02816
17.98200	-13.93039	8.02816
17.98618	-13.93039	8.02816
17.99037	-13.90841	8.02816
17.99456	-13.93039	8.02816
17.99875	-13.93039	8.02816
18.00304	-13.90841	8.02816
18.00724	-13.90841	8.02816
18.01142	-13.90841	8.02816
18.01562	-13.88644	8.02816
18.01980	-13.90841	8.02816
18.02399	-13.90841	8.02816
18.02817	-13.88644	8.02816
18.03247	-13.88644	8.02816
18.03678	-13.88644	8.02816
18.04097	-13.86447	8.02816
18.04516	-13.86447	8.02816
18.04934	-13.86447	8.02816
18.05353	-13.86447	8.02816
18.05772	-13.86447	8.02816
18.06202	-13.84250	8.02816
18.06625	-13.84250	8.02816
18.07045	-13.84250	8.02816
18.07466	-13.84250	8.02816
18.07885	-13.84250	8.02816
18.08307	-13.82052	8.02816
18.08727	-13.82052	8.02816
18.09151	-13.82052	8.02816
18.09576	-13.79855	8.02816
18.09996	-13.79855	8.02816
18.10415	-13.79855	8.02816
18.10833	-13.79855	8.02816
18.11252	-13.77658	8.02816
18.11671	-13.77658	8.02816
18.12089	-13.75461	8.02816
18.12518	-13.77658	8.02816
18.12938	-13.77658	8.02816
18.13358	-13.75461	8.02816
18.13787	-13.73263	8.02816
18.14206	-13.73263	8.02816
18.14625	-13.71066	8.02816
18.15043	-13.73263	8.02816
18.15473	-13.73263	8.02816
18.15894	-13.71066	8.02816
18.16313	-13.71066	8.02816
18.16732	-13.68869	8.02816
18.17151	-13.66672	8.02816
18.17575	-13.68869	8.02816
18.17996	-13.68869	8.02816
18.18433	-13.64474	8.02816
18.18860	-13.64474	8.02816
18.19280	-13.64474	8.02816
18.19700	-13.62277	8.02816
18.20120	-13.62277	8.02816
18.20539	-13.62277	8.02816
18.20958	-13.62277	8.02816
18.21389	-13.62277	8.02816
18.21818	-13.60080	8.02816
18.22239	-13.57882	8.02816
18.22658	-13.57882	8.02816
18.23077	-13.57882	8.02816
18.23496	-13.57882	8.02816
18.23926	-13.57882	8.02816
18.24345	-13.55685	8.02816
18.24776	-13.55685	8.02816
18.25196	-13.53488	8.02816
18.25616	-13.51291	8.02816
18.26035	-13.51291	8.02816
18.26455	-13.51291	8.02816
18.26874	-13.49093	8.02816
18.27292	-13.49093	8.02816
18.27723	-13.46896	8.02816
18.28144	-13.46896	8.02816
18.28563	-13.46896	8.02816
18.28982	-13.46896	8.02816
18.29402	-13.44699	8.02816
18.29821	-13.44699	8.02816
18.30240	-13.42502	8.02816
18.30672	-13.42502	8.02816
18.31096	-13.42502	8.02816
18.31515	-13.40304	8.02816
18.31935	-13.40304	8.02816
18.32355	-13.40304	8.02816
18.32774	-13.38107	8.02816
18.33192	-13.38107	8.02816
18.33618	-13.35910	8.02816
18.34056	-13.35910	8.02816
18.34476	-13.38107	8.02816
18.34895	-13.35910	8.02816
18.35314	-13.31515	8.02816
18.35733	-13.33713	8.02816
18.36152	-13.31515	8.02816
18.36570	-13.31515	8.02816
18.37000	-13.31515	8.02816
18.37420	-13.29318	8.02816
18.37840	-13.29318	8.02816
18.38259	-13.29318	8.02816
18.38678	-13.27121	8.02816
18.39096	-13.27121	8.02816
18.39515	-13.27121	8.02816
18.39945	-13.24923	8.02816
18.40368	-13.24923	8.02816
18.40791	-13.24923	8.02816
18.41210	-13.22726	8.02816
18.41629	-13.22726	8.02816
18.42048	-13.22726	8.02816
18.42467	-13.20529	8.02816
18.42899	-13.20529	8.02816
18.43323	-13.18332	8.02816
18.43743	-13.18332	8.02816
18.44173	-13.18332	8.02816
18.44592	-13.16134	8.02816
18.45010	-13.16134	8.02816
18.45429	-13.16134	8.02816
18.45854	-13.13937	8.02816
18.46286	-13.11740	8.02816
18.46709	-13.11740	8.02816
18.47129	-13.09543	8.02816
18.47549	-13.09543	8.02816
18.47968	-13.09543	8.02816
18.48387	-13.09543	8.02816
18.48806	-13.07345	8.02816
18.49236	-13.07345	8.02816
18.49656	-13.05148	8.02816
18.50076	-13.05148	8.02816
18.50496	-13.05148	8.02816
18.50915	-13.02951	8.02816
18.51334	-13.02951	8.02816
18.51753	-13.02951	8.02816
18.52183	-13.00754	8.02816
18.52604	-13.00754	8.02816
18.53023	-13.00754	8.02816
18.53442	-12.98556	8.02816
18.53861	-12.96359	8.02816
18.54291	-12.96359	8.02816
18.54709	-12.96359	8.02816
18.55140	-12.96359	8.02816
18.55566	-12.94162	8.02816
18.55987	-12.91964	8.02816
18.56407	-12.91964	8.02816
18.56827	-12.89767	8.02816
18.57246	-12.89767	8.02816
18.57665	-12.89767	8.02816
18.58091	-12.87570	8.02816
18.58518	-12.87570	8.02816
18.58940	-12.87570	8.02816
18.59359	-12.85373	8.02816
18.59778	-12.85373	8.02816
18.60197	-12.85373	8.02816
18.60615	-12.83175	8.02816
18.61034	-12.80978	8.02816
18.61463	-12.80978	8.02816
18.61884	-12.78781	8.02816
18.62304	-12.78781	8.02816
18.62722	-12.76584	8.02816
18.63141	-12.76584	8.02816
18.63561	-12.74386	8.02816
18.63980	-12.74386	8.02816
18.64422	-12.72189	8.02816
18.64842	-12.72189	8.02816
18.65261	-12.69992	8.02816
18.65680	-12.69992	8.02816
18.66101	-12.69992	8.02816
18.66521	-12.67795	8.02816
18.66940	-12.67795	8.02816
18.67371	-12.65597	8.02816
18.67795	-12.63400	8.02816
18.68215	-12.63400	8.02816
18.68634	-12.63400	8.02816
18.69053	-12.61203	8.02816
18.69472	-12.59006	8.02816
18.69891	-12.59006	8.02816
18.70319	-12.59006	8.02816
18.70748	-12.56808	8.02816
18.71170	-12.56808	8.02816
18.71589	-12.56808	8.02816
18.72009	-12.54611	8.02816
18.72428	-12.52414	8.02816
18.72847	-12.52414	8.02816
18.73266	-12.50216	8.02816
18.73697	-12.50216	8.02816
18.74118	-12.48019	8.02816
18.74547	-12.48019	8.02816
18.74966	-12.45822	8.02816
18.75385	-12.45822	8.02816
18.75804	-12.43625	8.02816
18.76226	-12.41427	8.02816
18.76657	-12.41427	8.02816
18.77080	-12.41427	8.02816
18.77499	-12.39230	8.02816
18.77918	-12.39230	8.02816
18.78337	-12.37033	8.02816
18.78756	-12.37033	8.02816
18.79175	-12.37033	8.02816
18.79607	-12.34836	8.02816
18.80031	-12.32638	8.02816
18.80450	-12.32638	8.02816
18.80869	-12.30441	8.02816
18.81288	-12.30441	8.02816
18.81707	-12.30441	8.02816
18.82126	-12.28244	8.02816
18.82550	-12.28244	8.02816
18.82977	-12.26047	8.02816
18.83397	-12.26047	8.02816
18.83816	-12.26047	8.02816
18.84235	-12.26047	8.02816
18.84665	-12.23849	8.02816
18.85083	-12.21652	8.02816
18.85502	-12.21652	8.02816
18.85932	-12.19455	8.02816
18.86356	-12.19455	8.02816
18.86776	-12.17257	8.02816
18.87196	-12.17257	8.02816
18.87615	-12.17257	8.02816
18.88034	-12.17257	8.02816
18.88453	-12.12863	8.02816
18.88885	-12.12863	8.02816
18.89307	-12.12863	8.02816
18.89726	-12.12863	8.02816
18.90145	-12.12863	8.02816
18.90564	-12.10666	8.02816
18.90983	-12.10666	8.02816
18.91402	-12.08468	8.02816
18.91834	-12.08468	8.02816
18.92259	-12.08468	8.02816
18.92678	-12.08468	8.02816
18.93097	-12.06271	8.02816
18.93516	-12.06271	8.02816
18.93935	-12.04074	8.02816
18.94354	-12.04074	8.02816
18.94789	-12.04074	8.02816
18.95216	-12.04074	8.02816
18.95637	-12.01877	8.02816
18.96058	-12.04074	8.02816
18.96477	-12.01877	8.02816
18.96896	-11.99679	8.02816
18.97316	-12.01877	8.02816
18.97735	-12.01877	8.02816
18.98166	-11.99679	8.02816
18.98588	-11.99679	8.02816
18.99007	-11.99679	8.02816
18.99426	-11.97482	8.02816
18.99845	-11.97482	8.02816
19.00263	-11.97482	8.02816
19.00682	-11.97482	8.02816
19.01112	-11.95285	8.02816
19.01533	-11.95285	8.02816
19.01952	-11.95285	8.02816
19.02368	-11.95285	8.02816
19.02789	-11.95285	8.02816
19.03208	-11.93088	8.02816
19.03627	-11.93088	8.02816
19.04059	-11.93088	8.02816
19.04483	-11.93088	8.02816
19.04912	-11.93088	8.02816
19.05331	-11.93088	8.02816
19.05750	-11.93088	8.02816
19.06171	-11.93088	8.02816
19.06590	-11.90890	8.02816
19.07017	-11.90890	8.02816
19.07445	-11.90890	8.02816
19.07866	-11.90890	8.02816
19.08285	-11.90890	8.02816
19.08704	-11.90890	8.02816
19.09128	-11.90890	8.02816
19.09548	-11.90890	8.02816
19.09968	-11.88693	8.02816
19.10399	-11.88693	8.02816
19.10819	-11.88693	8.02816
19.11238	-11.88693	8.02816
19.11657	-11.90890	8.02816
19.12076	-11.90890	8.02816
19.12495	-11.88693	8.02816
19.12914	-11.88693	8.02816
19.13344	-11.88693	8.02816
19.13766	-11.88693	8.02816
19.14185	-11.88693	8.02816
19.14604	-11.88693	8.02816
19.15033	-11.88693	8.02816
19.15452	-11.88693	8.02816
19.15870	-11.88693	8.02816
19.16304	-11.86496	8.02816
19.16728	-11.88693	8.02816
19.17149	-11.88693	8.02816
19.17568	-11.88693	8.02816
19.17987	-11.88693	8.02816
19.18406	-11.88693	8.02816
19.18824	-11.88693	8.02816
19.19250	-11.88693	8.02816
19.19678	-11.88693	8.02816
19.20097	-11.88693	8.02816
19.20517	-11.88693	8.02816
19.20937	-11.88693	8.02816
19.21359	-11.88693	8.02816
19.21779	-11.88693	8.02816
19.22197	-11.88693	8.02816
19.22627	-11.90890	8.02816
19.23048	-11.88693	8.02816
19.23467	-11.90890	8.02816
19.23886	-11.90890	8.02816
19.24305	-11.90890	8.02816
19.24724	-11.90890	8.02816
19.25153	-11.90890	8.02816
19.25580	-11.90890	8.02816
19.26007	-11.90890	8.02816
19.26427	-11.93088	8.02816
19.26846	-11.93088	8.02816
19.27266	-11.90890	8.02816
19.27685	-11.93088	8.02816
19.28104	-11.93088	8.02816
19.28535	-11.93088	8.02816
19.28959	-11.93088	8.02816
19.29378	-11.93088	8.02816
19.29797	-11.93088	8.02816
19.30215	-11.93088	8.02816
19.30634	-11.93088	8.02816
19.31053	-11.95285	8.02816
19.31476	-11.95285	8.02816
19.31905	-11.95285	8.02816
19.32325	-11.95285	8.02816
19.32745	-11.95285	8.02816
19.33164	-11.97482	8.02816
19.33584	-11.97482	8.02816
19.34002	-11.97482	8.02816
19.34421	-11.97482	8.02816
19.34852	-11.97482	8.02816
19.35283	-11.97482	8.02816
19.35702	-11.97482	8.02816
19.36123	-11.99679	8.02816
19.36542	-11.99679	8.02816
19.36962	-11.99679	8.02816
19.37381	-11.99679	8.02816
19.37811	-11.99679	8.02816
19.38232	-12.01877	8.02816
19.38653	-11.99679	8.02816
19.39072	-12.01877	8.02816
19.39491	-12.01877	8.02816
19.39910	-12.01877	8.02816
19.40328	-11.99679	8.02816
19.40768	-12.04074	8.02816
19.41194	-12.01877	8.02816
19.41613	-12.04074	8.02816
19.42032	-12.04074	8.02816
19.42451	-12.04074	8.02816
19.42870	-12.04074	8.02816
19.43289	-12.06271	8.02816
19.43714	-12.04074	8.02816
19.44141	-12.06271	8.02816
19.44561	-12.06271	8.02816
19.44980	-12.06271	8.02816
19.45409	-12.06271	8.02816
19.45828	-12.06271	8.02816
19.46249	-12.08468	8.02816
19.46668	-12.08468	8.02816
19.47099	-12.08468	8.02816
19.47520	-12.08468	8.02816
19.47939	-12.08468	8.02816
19.48359	-12.08468	8.02816
19.48778	-12.10666	8.02816
19.49198	-12.10666	8.02816
19.49616	-12.10666	8.02816
19.50046	-12.10666	8.02816
19.50468	-12.10666	8.02816
19.50888	-12.10666	8.02816
19.51306	-12.12863	8.02816
19.51725	-12.12863	8.02816
19.52144	-12.12863	8.02816
19.52563	-12.15060	8.02816
19.52993	-12.15060	8.02816
19.53417	-12.15060	8.02816
19.53836	-12.15060	8.02816
19.54255	-12.15060	8.02816
19.54674	-12.15060	8.02816
19.55092	-12.17257	8.02816
19.55522	-12.17257	8.02816
19.55946	-12.15060	8.02816
19.56376	-12.17257	8.02816
19.56797	-12.17257	8.02816
19.57216	-12.17257	8.02816
19.57635	-12.19455	8.02816
19.58054	-12.19455	8.02816
19.58473	-12.19455	8.02816
19.58893	-12.19455	8.02816
19.59324	-12.19455	8.02816
19.59744	-12.19455	8.02816
19.60163	-12.19455	8.02816
19.60583	-12.19455	8.02816
19.61002	-12.19455	8.02816
19.61421	-12.21652	8.02816
19.61840	-12.21652	8.02816
19.62271	-12.21652	8.02816
19.62692	-12.21652	8.02816
19.63111	-12.21652	8.02816
19.63530	-12.21652	8.02816
19.63950	-12.21652	8.02816
19.64368	-12.21652	8.02816
19.64786	-12.21652	8.02816
19.65220	-12.21652	8.02816
19.65657	-12.23849	8.02816
19.66078	-12.23849	8.02816
19.66498	-12.23849	8.02816
19.66918	-12.23849	8.02816
19.67338	-12.23849	8.02816
19.67757	-12.23849	8.02816
19.68183	-12.23849	8.02816
19.68612	-12.23849	8.02816
19.69032	-12.23849	8.02816
19.69452	-12.23849	8.02816
19.69870	-12.23849	8.02816
19.70289	-12.23849	8.02816
19.70708	-12.23849	8.02816
19.71127	-12.23849	8.02816
19.71559	-12.23849	8.02816
19.71980	-12.23849	8.02816
19.72399	-12.26047	8.02816
19.72818	-12.23849	8.02816
19.73237	-12.26047	8.02816
19.73656	-12.23849	8.02816
19.74075	-12.23849	8.02816
19.74505	-12.23849	8.02816
19.74926	-12.23849	8.02816
19.75345	-12.23849	8.02816
19.75774	-12.23849	8.02816
19.76195	-12.23849	8.02816
19.76614	-12.26047	8.02816
19.77034	-12.26047	8.02816
19.77467	-12.23849	8.02816
19.77891	-12.23849	8.02816
19.78311	-12.23849	8.02816
19.78730	-12.23849	8.02816
19.79150	-12.23849	8.02816
19.79568	-12.23849	8.02816
19.79987	-12.21652	8.02816
19.80412	-12.23849	8.02816
19.80840	-12.21652	8.02816
19.81259	-12.21652	8.02816
19.81678	-12.21652	8.02816
19.82097	-12.23849	8.02816
19.82516	-12.21652	8.02816
19.82935	-12.23849	8.02816
19.83353	-12.21652	8.02816
19.83783	-12.21652	8.02816
19.84204	-12.21652	8.02816
19.84623	-12.21652	8.02816
19.85042	-12.19455	8.02816
19.85461	-12.21652	8.02816
19.85890	-12.19455	8.02816
19.86313	-12.21652	8.02816
19.86745	-12.19455	8.02816
19.87168	-12.19455	8.02816
19.87587	-12.19455	8.02816
19.88006	-12.19455	8.02816
19.88424	-12.19455	8.02816
19.88843	-12.19455	8.02816
19.89262	-12.17257	8.02816
19.89696	-12.17257	8.02816
19.90120	-12.17257	8.02816
19.90540	-12.17257	8.02816
19.90959	-12.17257	8.02816
19.91378	-12.17257	8.02816
19.91796	-12.15060	8.02816
19.92215	-12.15060	8.02816
19.92639	-12.17257	8.02816
19.93066	-12.15060	8.02816
19.93486	-12.17257	8.02816
19.93905	-12.15060	8.02816
19.94324	-12.15060	8.02816
19.94743	-12.15060	8.02816
19.95162	-12.15060	8.02816
19.95581	-12.15060	8.02816
19.96022	-12.15060	8.02816
19.96444	-12.12863	8.02816
19.96863	-12.12863	8.02816
19.97284	-12.12863	8.02816
19.97703	-12.12863	8.02816
19.98122	-12.12863	8.02816
19.98542	-12.12863	8.02816
19.98973	-12.10666	8.02816
19.99394	-12.10666	8.02816
19.99813	-12.10666	8.02816
20.00232	-12.08468	8.02816
20.00651	-12.08468	8.02816
20.01070	-12.10666	8.02816
20.01489	-12.08468	8.02816
20.01921	-12.10666	8.02816
20.02345	-12.10666	8.02816
20.02765	-12.08468	8.02816
20.03184	-12.08468	8.02816
20.03603	-12.08468	8.02816
20.04050	-12.08468	8.02816
20.04473	-12.08468	8.02816
20.04905	-12.06271	8.02816
20.05339	-12.08468	8.02816
20.05761	-12.06271	8.02816
20.06199	-12.06271	8.02816
20.06619	-12.06271	8.02816
20.07039	-12.06271	8.02816
20.07459	-12.04074	8.02816
20.07878	-12.06271	8.02816
20.08313	-12.04074	8.02816
20.08737	-12.04074	8.02816
20.09159	-12.04074	8.02816
20.09579	-12.04074	8.02816
20.09998	-12.04074	8.02816
20.10417	-12.04074	8.02816
20.10836	-12.01877	8.02816
20.11272	-12.04074	8.02816
20.11693	-12.04074	8.02816
20.12115	-12.01877	8.02816
20.12534	-12.04074	8.02816
20.12953	-12.01877	8.02816
20.13372	-12.01877	8.02816
20.13791	-12.01877	8.02816
20.14284	-12.01877	8.02816
20.14708	-11.99679	8.02816
20.15129	-12.01877	8.02816
20.15549	-11.99679	8.02816
20.15969	-11.99679	8.02816
20.16401	-11.99679	8.02816
20.16820	-11.99679	8.02816
20.17245	-11.99679	8.02816
20.17674	-11.99679	8.02816
20.18094	-11.99679	8.02816
20.18514	-11.99679	8.02816
20.18934	-11.97482	8.02816
20.19354	-11.97482	8.02816
20.19773	-11.97482	8.02816
20.20193	-11.99679	8.02816
20.20623	-11.97482	8.02816
20.21051	-11.97482	8.02816
20.21474	-11.97482	8.02816
20.21895	-11.95285	8.02816
20.22315	-11.95285	8.02816
20.22735	-11.97482	8.02816
20.23155	-11.95285	8.02816
20.23588	-11.95285	8.02816
20.24009	-11.95285	8.02816
20.24428	-11.95285	8.02816
20.24848	-11.95285	8.02816
20.25267	-11.95285	8.02816
20.25687	-11.95285	8.02816
20.26106	-11.95285	8.02816
20.26557	-11.93088	8.02816
20.26978	-11.95285	8.02816
20.27398	-11.95285	8.02816
20.27817	-11.93088	8.02816
20.28236	-11.93088	8.02816
20.28654	-11.93088	8.02816
20.29073	-11.93088	8.02816
20.29498	-11.93088	8.02816
20.29926	-11.93088	8.02816
20.30346	-11.93088	8.02816
20.30767	-11.93088	8.02816
20.31186	-11.93088	8.02816
20.31604	-11.90890	8.02816
20.32023	-11.93088	8.02816
20.32442	-11.90890	8.02816
20.32871	-11.90890	8.02816
20.33291	-11.93088	8.02816
20.33710	-11.93088	8.02816
20.34129	-11.90890	8.02816
20.34548	-11.90890	8.02816
20.34966	-11.90890	8.02816
20.35385	-11.90890	8.02816
20.35815	-11.93088	8.02816
20.36236	-11.90890	8.02816
20.36666	-11.90890	8.02816
20.37085	-11.90890	8.02816
20.37504	-11.90890	8.02816
20.37923	-11.90890	8.02816
20.38341	-11.90890	8.02816
20.38773	-11.90890	8.02816
20.39197	-11.90890	8.02816
20.39617	-11.90890	8.02816
20.40037	-11.90890	8.02816
20.40456	-11.93088	8.02816
20.40876	-11.90890	8.02816
20.41296	-11.90890	8.02816
20.41722	-11.90890	8.02816
20.42150	-11.90890	8.02816
20.42571	-11.90890	8.02816
20.42990	-11.90890	8.02816
20.43410	-11.90890	8.02816
20.43829	-11.90890	8.02816
20.44248	-11.93088	8.02816
20.44668	-11.90890	8.02816
20.45099	-11.90890	8.02816
20.45520	-11.90890	8.02816
20.45940	-11.90890	8.02816
20.46360	-11.90890	8.02816
20.46791	-11.93088	8.02816
20.47212	-11.90890	8.02816
20.47632	-11.93088	8.02816
20.48063	-11.90890	8.02816
20.48484	-11.90890	8.02816
20.48905	-11.93088	8.02816
20.49324	-11.93088	8.02816
20.49744	-11.90890	8.02816
20.50163	-11.93088	8.02816
20.50581	-11.93088	8.02816
20.51015	-11.93088	8.02816
20.51440	-11.93088	8.02816
20.51860	-11.93088	8.02816
20.52279	-11.93088	8.02816
20.52699	-11.93088	8.02816
20.53118	-11.93088	8.02816
20.53537	-11.93088	8.02816
20.53966	-11.93088	8.02816
20.54394	-11.95285	8.02816
20.54815	-11.95285	8.02816
20.55235	-11.93088	8.02816
20.55655	-11.95285	8.02816
20.56074	-11.95285	8.02816
20.56493	-11.93088	8.02816
20.56925	-11.93088	8.02816
20.57356	-11.95285	8.02816
20.57777	-11.95285	8.02816
20.58196	-11.95285	8.02816
20.58616	-11.95285	8.02816
20.59035	-11.95285	8.02816
20.59454	-11.95285	8.02816
20.59873	-11.95285	8.02816
20.60304	-11.95285	8.02816
20.60725	-11.97482	8.02816
20.61144	-11.95285	8.02816
20.61563	-11.97482	8.02816
20.61982	-11.95285	8.02816
20.62401	-11.95285	8.02816
20.62820	-11.95285	8.02816
20.63251	-11.97482	8.02816
20.63677	-11.97482	8.02816
20.64097	-11.97482	8.02816
20.64517	-11.97482	8.02816
20.64936	-11.97482	8.02816
20.65356	-11.97482	8.02816
20.65775	-11.97482	8.02816
20.66199	-11.97482	8.02816
20.66628	-11.97482	8.02816
20.67058	-11.97482	8.02816
20.67477	-11.97482	8.02816
20.67896	-11.97482	8.02816
20.68315	-11.99679	8.02816
20.68734	-11.97482	8.02816
20.69152	-11.99679	8.02816
20.69579	-11.99679	8.02816
20.69999	-11.99679	8.02816
20.70418	-11.99679	8.02816
20.70837	-11.99679	8.02816
20.71256	-11.99679	8.02816
20.71675	-11.99679	8.02816
20.72093	-11.99679	8.02816
20.72524	-12.01877	8.02816
20.72945	-12.01877	8.02816
20.73364	-12.01877	8.02816
20.73783	-11.99679	8.02816
20.74202	-12.01877	8.02816
20.74620	-11.99679	8.02816
20.75039	-12.01877	8.02816
20.75468	-12.01877	8.02816
20.75892	-12.01877	8.02816
20.76312	-12.01877	8.02816
20.76731	-12.01877	8.02816
20.77164	-12.01877	8.02816
20.77583	-12.01877	8.02816
20.78002	-12.01877	8.02816
20.78427	-12.01877	8.02816
20.78855	-12.04074	8.02816
20.79275	-12.04074	8.02816
20.79694	-12.01877	8.02816
20.80113	-12.04074	8.02816
20.80532	-12.01877	8.02816
20.80951	-12.01877	8.02816
20.81370	-12.04074	8.02816
20.81799	-12.04074	8.02816
20.82220	-12.04074	8.02816
20.82639	-12.04074	8.02816
20.83058	-12.04074	8.02816
20.83476	-12.04074	8.02816
20.83895	-12.06271	8.02816
20.84314	-12.06271	8.02816
20.84744	-12.06271	8.02816
20.85166	-12.06271	8.02816
20.85585	-12.06271	8.02816
20.86004	-12.06271	8.02816
20.86422	-12.06271	8.02816
20.86842	-12.06271	8.02816
20.87271	-12.08468	8.02816
20.87705	-12.06271	8.02816
20.88131	-12.08468	8.02816
20.88551	-12.08468	8.02816
20.88971	-12.08468	8.02816
20.89390	-12.08468	8.02816
20.89809	-12.10666	8.02816
20.90229	-12.08468	8.02816
20.90653	-12.10666	8.02816
20.91081	-12.10666	8.02816
20.91501	-12.10666	8.02816
20.91921	-12.10666	8.02816
20.92340	-12.12863	8.02816
20.92760	-12.10666	8.02816
20.93179	-12.12863	8.02816
20.93599	-12.12863	8.02816
20.94029	-12.12863	8.02816
20.94449	-12.12863	8.02816
20.94869	-12.12863	8.02816
20.95288	-12.12863	8.02816
20.95708	-12.15060	8.02816
20.96127	-12.12863	8.02816
20.96546	-12.12863	8.02816
20.96980	-12.15060	8.02816
20.97414	-12.15060	8.02816
20.97833	-12.17257	8.02816
20.98252	-12.17257	8.02816
20.98672	-12.17257	8.02816
20.99091	-12.17257	8.02816
20.99511	-12.19455	8.02816
20.99947	-12.17257	8.02816
21.00371	-12.19455	8.02816
21.00791	-12.19455	8.02816
21.01210	-12.19455	8.02816
21.01629	-12.19455	8.02816
21.02048	-12.19455	8.02816
21.02468	-12.19455	8.02816
21.02892	-12.21652	8.02816
21.03319	-12.21652	8.02816
21.03740	-12.21652	8.02816
21.04159	-12.21652	8.02816
21.04577	-12.21652	8.02816
21.04996	-12.21652	8.02816
21.05415	-12.23849	8.02816
21.05834	-12.23849	8.02816
21.06263	-12.23849	8.02816
21.06683	-12.26047	8.02816
21.07102	-12.26047	8.02816
21.07532	-12.26047	8.02816
21.07950	-12.26047	8.02816
21.08368	-12.26047	8.02816
21.08786	-12.28244	8.02816
21.09216	-12.26047	8.02816
21.09637	-12.26047	8.02816
21.10056	-12.28244	8.02816
21.10475	-12.28244	8.02816
21.10893	-12.28244	8.02816
21.11312	-12.30441	8.02816
21.11731	-12.30441	8.02816
21.12160	-12.28244	8.02816
21.12584	-12.30441	8.02816
21.13004	-12.28244	8.02816
21.13423	-12.30441	8.02816
21.13842	-12.30441	8.02816
21.14261	-12.30441	8.02816
21.14680	-12.30441	8.02816
21.15104	-12.32638	8.02816
21.15531	-12.30441	8.02816
21.15951	-12.32638	8.02816
21.16368	-12.30441	8.02816
21.16787	-12.30441	8.02816
21.17206	-12.32638	8.02816
21.17635	-12.32638	8.02816
21.18054	-12.32638	8.02816
21.18483	-12.32638	8.02816
21.18903	-12.32638	8.02816
21.19322	-12.32638	8.02816
21.19741	-12.32638	8.02816
21.20159	-12.32638	8.02816
21.20578	-12.32638	8.02816
21.20997	-12.34836	8.02816
21.21427	-12.32638	8.02816
21.21850	-12.32638	8.02816
21.22269	-12.32638	8.02816
21.22688	-12.32638	8.02816
21.23107	-12.32638	8.02816
21.23526	-12.34836	8.02816
21.23945	-12.34836	8.02816
21.24379	-12.32638	8.02816
21.24805	-12.34836	8.02816
21.25225	-12.34836	8.02816
21.25645	-12.34836	8.02816
21.26065	-12.34836	8.02816
21.26485	-12.34836	8.02816
21.26904	-12.34836	8.02816
21.27329	-12.34836	8.02816
21.27770	-12.34836	8.02816
21.28190	-12.34836	8.02816
21.28609	-12.34836	8.02816
21.29029	-12.34836	8.02816
21.29448	-12.34836	8.02816
21.29867	-12.34836	8.02816
21.30287	-12.34836	8.02816
21.30717	-12.34836	8.02816
21.31138	-12.34836	8.02816
21.31558	-12.34836	8.02816
21.31977	-12.34836	8.02816
21.32395	-12.34836	8.02816
21.32814	-12.34836	8.02816
21.33233	-12.34836	8.02816
21.33663	-12.34836	8.02816
21.34084	-12.34836	8.02816
21.34502	-12.34836	8.02816
21.34921	-12.34836	8.02816
21.35340	-12.34836	8.02816
21.35759	-12.34836	8.02816
21.36177	-12.34836	8.02816
21.36610	-12.34836	8.02816
21.37035	-12.34836	8.02816
21.37455	-12.34836	8.02816
21.37884	-12.34836	8.02816
21.38302	-12.34836	8.02816
21.38721	-12.32638	8.02816
21.39139	-12.34836	8.02816
21.39565	-12.32638	8.02816
21.39994	-12.34836	8.02816
21.40414	-12.34836	8.02816
21.40834	-12.32638	8.02816
21.41252	-12.32638	8.02816
21.41671	-12.32638	8.02816
21.42090	-12.32638	8.02816
21.42509	-12.34836	8.02816
21.42939	-12.32638	8.02816
21.43359	-12.32638	8.02816
21.43778	-12.32638	8.02816
21.44197	-12.32638	8.02816
21.44616	-12.32638	8.02816
21.45035	-12.32638	8.02816
21.45453	-12.32638	8.02816
21.45885	-12.32638	8.02816
21.46305	-12.32638	8.02816
21.46724	-12.32638	8.02816
21.47145	-12.32638	8.02816
21.47566	-12.32638	8.02816
21.47995	-12.30441	8.02816
21.48414	-12.32638	8.02816
21.48851	-12.30441	8.02816
21.49278	-12.30441	8.02816
21.49697	-12.30441	8.02816
21.50116	-12.30441	8.02816
21.50535	-12.30441	8.02816
21.50954	-12.30441	8.02816
21.51391	-12.30441	8.02816
21.51983	-12.30441	8.02816
21.52429	-12.30441	8.02816
21.52865	-12.28244	8.02816
21.53296	-12.28244	8.02816
21.53798	-12.28244	8.02816
21.54249	-12.28244	8.02816
21.54691	-12.28244	8.02816
21.55206	-12.28244	8.02816
21.55636	-12.28244	8.02816
21.56074	-12.28244	8.02816
21.56502	-12.28244	8.02816
21.56937	-12.28244	8.02816
21.57358	-12.28244	8.02816
21.57782	-12.28244	8.02816
21.58213	-12.28244	8.02816
21.58681	-12.28244	8.02816
21.59117	-12.26047	8.02816
21.59539	-12.28244	8.02816
21.59960	-12.26047	8.02816
21.60388	-12.26047	8.02816
21.60818	-12.26047	8.02816
21.61248	-12.26047	8.02816
21.61669	-12.26047	8.02816
21.62097	-12.26047	8.02816
21.62524	-12.23849	8.02816
21.62942	-12.23849	8.02816
21.63360	-12.26047	8.02816
21.63791	-12.23849	8.02816
21.64224	-12.26047	8.02816
21.64649	-12.23849	8.02816
21.65068	-12.23849	8.02816
21.65500	-12.23849	8.02816
21.65924	-12.23849	8.02816
21.66342	-12.23849	8.02816
21.66761	-12.26047	8.02816
21.67207	-12.23849	8.02816
21.67636	-12.23849	8.02816
21.68056	-12.21652	8.02816
21.68473	-12.21652	8.02816
21.68931	-12.23849	8.02816
21.69349	-12.23849	8.02816
21.69767	-12.21652	8.02816
21.70187	-12.21652	8.02816
21.70625	-12.21652	8.02816
21.71051	-12.21652	8.02816
21.71470	-12.21652	8.02816
21.71892	-12.21652	8.02816
21.72323	-12.19455	8.02816
21.72744	-12.21652	8.02816
21.73163	-12.19455	8.02816
21.73601	-12.19455	8.02816
21.74050	-12.19455	8.02816
21.74472	-12.19455	8.02816
21.74892	-12.19455	8.02816
21.75319	-12.19455	8.02816
21.75750	-12.19455	8.02816
21.76171	-12.19455	8.02816
21.76597	-12.17257	8.02816
21.77050	-12.17257	8.02816
21.77481	-12.17257	8.02816
21.77901	-12.17257	8.02816
21.78319	-12.17257	8.02816
21.78750	-12.17257	8.02816
21.79188	-12.15060	8.02816
21.79619	-12.15060	8.02816
21.80047	-12.15060	8.02816
21.80487	-12.15060	8.02816
21.80916	-12.15060	8.02816
21.81337	-12.15060	8.02816
21.81758	-12.12863	8.02816
21.82224	-12.12863	8.02816
21.82657	-12.12863	8.02816
21.83084	-12.10666	8.02816
21.83512	-12.12863	8.02816
21.83977	-12.10666	8.02816
21.84400	-12.10666	8.02816
21.84820	-12.10666	8.02816
21.85243	-12.10666	8.02816
21.85681	-12.10666	8.02816
21.86112	-12.08468	8.02816
21.86535	-12.08468	8.02816
21.86963	-12.08468	8.02816
21.87397	-12.08468	8.02816
21.87819	-12.06271	8.02816
21.88238	-12.08468	8.02816
21.88660	-12.06271	8.02816
21.89103	-12.06271	8.02816
21.89535	-12.06271	8.02816
21.89955	-12.06271	8.02816
21.90379	-12.04074	8.02816
21.90811	-12.04074	8.02816
21.91231	-12.04074	8.02816
21.91650	-12.04074	8.02816
21.92136	-12.01877	8.02816
21.92567	-12.01877	8.02816
21.92987	-12.01877	8.02816
21.93405	-12.01877	8.02816
21.93847	-11.99679	8.02816
21.94273	-11.99679	8.02816
21.94692	-11.99679	8.02816
21.95124	-11.99679	8.02816
21.95583	-11.99679	8.02816
21.96005	-11.99679	8.02816
21.96424	-11.97482	8.02816
21.96846	-11.97482	8.02816
21.97295	-11.95285	8.02816
21.97718	-11.95285	8.02816
21.98165	-11.93088	8.02816
21.98603	-11.93088	8.02816
21.99038	-11.93088	8.02816
21.99461	-11.93088	8.02816
21.99895	-11.90890	8.02816
22.00320	-11.93088	8.02816
22.00760	-11.90890	8.02816
22.01205	-11.88693	8.02816
22.01635	-11.88693	8.02816
22.02068	-11.88693	8.02816
22.02498	-11.88693	8.02816
22.02919	-11.88693	8.02816
22.03339	-11.86496	8.02816
22.03767	-11.86496	8.02816
22.04203	-11.86496	8.02816
22.04631	-11.84298	8.02816
22.05052	-11.84298	8.02816
22.05487	-11.84298	8.02816
22.05916	-11.82101	8.02816
22.06338	-11.84298	8.02816
22.06761	-11.79904	8.02816
22.07197	-11.82101	8.02816
22.07629	-11.79904	8.02816
22.08051	-11.79904	8.02816
22.08471	-11.79904	8.02816
22.08903	-11.79904	8.02816
22.09329	-11.77707	8.02816
22.09749	-11.77707	8.02816
22.10183	-11.77707	8.02816
22.10619	-11.75509	8.02816
22.11044	-11.75509	8.02816
22.11463	-11.75509	8.02816
22.11885	-11.73312	8.02816
22.12325	-11.75509	8.02816
22.12745	-11.73312	8.02816
22.13165	-11.71115	8.02816
22.13604	-11.71115	8.02816
22.14056	-11.71115	8.02816
22.14477	-11.71115	8.02816
22.14895	-11.68918	8.02816
22.15317	-11.68918	8.02816
22.15753	-11.68918	8.02816
22.16175	-11.66720	8.02816
22.16702	-11.66720	8.02816
22.17159	-11.64523	8.02816
22.17590	-11.64523	8.02816
22.18010	-11.64523	8.02816
22.18429	-11.64523	8.02816
22.18907	-11.62326	8.02816
22.19334	-11.62326	8.02816
22.19769	-11.62326	8.02816
22.20223	-11.60129	8.02816
22.20672	-11.60129	8.02816
22.21094	-11.60129	8.02816
22.21513	-11.57931	8.02816
22.21938	-11.57931	8.02816
22.22376	-11.55734	8.02816
22.22809	-11.55734	8.02816
22.23232	-11.55734	8.02816
22.23659	-11.55734	8.02816
22.24240	-11.53537	8.02816
22.24667	-11.53537	8.02816
22.25087	-11.53537	8.02816
22.25543	-11.51339	8.02816
22.25976	-11.49142	8.02816
22.26399	-11.49142	8.02816
22.26820	-11.49142	8.02816
22.27276	-11.46945	8.02816
22.27699	-11.46945	8.02816
22.28119	-11.44748	8.02816
22.28541	-11.44748	8.02816
22.29007	-11.44748	8.02816
22.29433	-11.44748	8.02816
22.29853	-11.42550	8.02816
22.30275	-11.42550	8.02816
22.30709	-11.40353	8.02816
22.31141	-11.40353	8.02816
22.31561	-11.40353	8.02816
22.32008	-11.38156	8.02816
22.32444	-11.38156	8.02816
22.32868	-11.38156	8.02816
22.33289	-11.35959	8.02816
22.33717	-11.35959	8.02816
22.34149	-11.33761	8.02816
22.34571	-11.33761	8.02816
22.34992	-11.33761	8.02816
22.35437	-11.31564	8.02816
22.35868	-11.31564	8.02816
22.36289	-11.29367	8.02816
22.36711	-11.29367	8.02816
22.37148	-11.29367	8.02816
22.37575	-11.29367	8.02816
22.37995	-11.24972	8.02816
22.38423	-11.27170	8.02816
22.38859	-11.24972	8.02816
22.39285	-11.22775	8.02816
22.39705	-11.22775	8.02816
22.40125	-11.22775	8.02816
22.40578	-11.22775	8.02816
22.41000	-11.20578	8.02816
22.41449	-11.18381	8.02816
22.41887	-11.20578	8.02816
22.42321	-11.18381	8.02816
22.42742	-11.16183	8.02816
22.43163	-11.16183	8.02816
22.43586	-11.16183	8.02816
22.44017	-11.13986	8.02816
22.44455	-11.13986	8.02816
22.44879	-11.11789	8.02816
22.45307	-11.11789	8.02816
22.45738	-11.11789	8.02816
22.46159	-11.11789	8.02816
22.46583	-11.09591	8.02816
22.47010	-11.09591	8.02816
22.47448	-11.07394	8.02816
22.47875	-11.07394	8.02816
22.48296	-11.07394	8.02816
22.48728	-11.07394	8.02816
22.49161	-11.05197	8.02816
22.49585	-11.05197	8.02816
22.50006	-11.03000	8.02816
22.50442	-11.03000	8.02816
22.50878	-11.03000	8.02816
22.51302	-11.00802	8.02816
22.51732	-11.00802	8.02816
22.52188	-11.00802	8.02816
22.52624	-10.98605	8.02816
22.53047	-10.98605	8.02816
22.53468	-10.96408	8.02816
22.53904	-10.96408	8.02816
22.54328	-10.96408	8.02816
22.54751	-10.94211	8.02816
22.55180	-10.94211	8.02816
22.55605	-10.94211	8.02816
22.56026	-10.92013	8.02816
22.56447	-10.94211	8.02816
22.56882	-10.92013	8.02816
22.57304	-10.92013	8.02816
22.57724	-10.92013	8.02816
22.58143	-10.89816	8.02816
22.58562	-10.89816	8.02816
22.58981	-10.89816	8.02816
22.59400	-10.87619	8.02816
22.59833	-10.87619	8.02816
22.60258	-10.87619	8.02816
22.60679	-10.87619	8.02816
22.61098	-10.85422	8.02816
22.61516	-10.85422	8.02816
22.61950	-10.83224	8.02816
22.62369	-10.85422	8.02816
22.62797	-10.83224	8.02816
22.63225	-10.83224	8.02816
22.63646	-10.83224	8.02816
22.64066	-10.81027	8.02816
22.64484	-10.81027	8.02816
22.64903	-10.81027	8.02816
22.65322	-10.81027	8.02816
22.65740	-10.78830	8.02816
22.66170	-10.78830	8.02816
22.66593	-10.78830	8.02816
22.67014	-10.78830	8.02816
22.67433	-10.78830	8.02816
22.67852	-10.76632	8.02816
22.68271	-10.76632	8.02816
22.68690	-10.76632	8.02816
22.69120	-10.76632	8.02816
22.69542	-10.76632	8.02816
22.69961	-10.74435	8.02816
22.70382	-10.74435	8.02816
22.70802	-10.74435	8.02816
22.71221	-10.74435	8.02816
22.71640	-10.74435	8.02816
22.72089	-10.74435	8.02816
22.72514	-10.72238	8.02816
22.72933	-10.72238	8.02816
22.73352	-10.72238	8.02816
22.73771	-10.72238	8.02816
22.74190	-10.70041	8.02816
22.74609	-10.72238	8.02816
22.75034	-10.70041	8.02816
22.75461	-10.70041	8.02816
22.75880	-10.70041	8.02816
22.76299	-10.70041	8.02816
22.76720	-10.70041	8.02816
22.77140	-10.70041	8.02816
22.77560	-10.70041	8.02816
22.77979	-10.70041	8.02816
22.78409	-10.67843	8.02816
22.78830	-10.67843	8.02816
22.79249	-10.67843	8.02816
22.79668	-10.67843	8.02816
22.80087	-10.67843	8.02816
22.80506	-10.67843	8.02816
22.80926	-10.67843	8.02816
22.81356	-10.67843	8.02816
22.81779	-10.67843	8.02816
22.82209	-10.65646	8.02816
22.82627	-10.67843	8.02816
22.83046	-10.67843	8.02816
22.83465	-10.65646	8.02816
22.83883	-10.67843	8.02816
22.84313	-10.67843	8.02816
22.84736	-10.67843	8.02816
22.85157	-10.65646	8.02816
22.85576	-10.65646	8.02816
22.85994	-10.67843	8.02816
22.86413	-10.65646	8.02816
22.86833	-10.65646	8.02816
22.87258	-10.67843	8.02816
22.87686	-10.67843	8.02816
22.88106	-10.65646	8.02816
22.88525	-10.67843	8.02816
22.88944	-10.67843	8.02816
22.89363	-10.67843	8.02816
22.89781	-10.67843	8.02816
22.90200	-10.67843	8.02816
22.90630	-10.67843	8.02816
22.91051	-10.67843	8.02816
22.91470	-10.67843	8.02816
22.91889	-10.67843	8.02816
22.92319	-10.67843	8.02816
22.92737	-10.70041	8.02816
22.93157	-10.67843	8.02816
22.93587	-10.70041	8.02816
22.94008	-10.70041	8.02816
22.94426	-10.70041	8.02816
22.94845	-10.70041	8.02816
22.95264	-10.70041	8.02816
22.95683	-10.70041	8.02816
22.96101	-10.72238	8.02816
22.96533	-10.70041	8.02816
22.96957	-10.72238	8.02816
22.97376	-10.72238	8.02816
22.97795	-10.72238	8.02816
22.98214	-10.72238	8.02816
22.98633	-10.74435	8.02816
22.99051	-10.72238	8.02816
22.99476	-10.74435	8.02816
22.99903	-10.74435	8.02816
23.00323	-10.74435	8.02816
23.00743	-10.76632	8.02816
23.01163	-10.76632	8.02816
23.01582	-10.76632	8.02816
23.02000	-10.76632	8.02816
23.02430	-10.76632	8.02816
23.02859	-10.76632	8.02816
23.03279	-10.78830	8.02816
23.03698	-10.78830	8.02816
23.04117	-10.81027	8.02816
23.04536	-10.81027	8.02816
23.04954	-10.81027	8.02816
23.05373	-10.81027	8.02816
23.05803	-10.83224	8.02816
23.06224	-10.83224	8.02816
23.06645	-10.83224	8.02816
23.07065	-10.83224	8.02816
23.07484	-10.85422	8.02816
23.07903	-10.85422	8.02816
23.08322	-10.85422	8.02816
23.08752	-10.87619	8.02816
23.09589	-10.87619	8.02816
23.10020	-10.89816	8.02816
23.10441	-10.89816	8.02816
23.10861	-10.89816	8.02816
23.11281	-10.92013	8.02816
23.11706	-10.94211	8.02816
23.12133	-10.92013	8.02816
23.12553	-10.94211	8.02816
23.12983	-10.94211	8.02816
23.13401	-10.94211	8.02816
23.13821	-10.98605	8.02816
23.14240	-10.98605	8.02816
23.14659	-10.98605	8.02816
23.15089	-11.00802	8.02816
23.15512	-11.00802	8.02816
23.15931	-11.00802	8.02816
23.16349	-11.03000	8.02816
23.16770	-11.03000	8.02816
23.17190	-11.05197	8.02816
23.17609	-11.05197	8.02816
23.18040	-11.05197	8.02816
23.18461	-11.05197	8.02816
23.18880	-11.07394	8.02816
23.19299	-11.07394	8.02816
23.19718	-11.09591	8.02816
23.20137	-11.09591	8.02816
23.20556	-11.11789	8.02816
23.20986	-11.11789	8.02816
23.21411	-11.13986	8.02816
23.21834	-11.13986	8.02816
23.22254	-11.16183	8.02816
23.22673	-11.16183	8.02816
23.23103	-11.18381	8.02816
23.23522	-11.20578	8.02816
23.23948	-11.20578	8.02816
23.24377	-11.20578	8.02816
23.24797	-11.20578	8.02816
23.25216	-11.22775	8.02816
23.25636	-11.24972	8.02816
23.26055	-11.24972	8.02816
23.26474	-11.24972	8.02816
23.26894	-11.27170	8.02816
23.27325	-11.29367	8.02816
23.27745	-11.29367	8.02816
23.28164	-11.31564	8.02816
23.28584	-11.31564	8.02816
23.29004	-11.31564	8.02816
23.29423	-11.33761	8.02816
23.29842	-11.33761	8.02816
23.30273	-11.35959	8.02816
23.30694	-11.38156	8.02816
23.31113	-11.38156	8.02816
23.31533	-11.40353	8.02816
23.31952	-11.40353	8.02816
23.32368	-11.40353	8.02816
23.32788	-11.42550	8.02816
23.33233	-11.44748	8.02816
23.33655	-11.44748	8.02816
23.34074	-11.49142	8.02816
23.34493	-11.49142	8.02816
23.34911	-11.49142	8.02816
23.35330	-11.51339	8.02816
23.35749	-11.51339	8.02816
23.36172	-11.51339	8.02816
23.36601	-11.55734	8.02816
23.37022	-11.55734	8.02816
23.37442	-11.55734	8.02816
23.37860	-11.57931	8.02816
23.38279	-11.57931	8.02816
23.38698	-11.60129	8.02816
23.39117	-11.62326	8.02816
23.39546	-11.62326	8.02816
23.39967	-11.62326	8.02816
23.40387	-11.64523	8.02816
23.40806	-11.64523	8.02816
23.41224	-11.66720	8.02816
23.41643	-11.68918	8.02816
23.42062	-11.68918	8.02816
23.42492	-11.71115	8.02816
23.42913	-11.71115	8.02816
23.43342	-11.73312	8.02816
23.43761	-11.75509	8.02816
23.44180	-11.75509	8.02816
23.44599	-11.75509	8.02816
23.45017	-11.77707	8.02816
23.45447	-11.77707	8.02816
23.45871	-11.79904	8.02816
23.46290	-11.82101	8.02816
23.46710	-11.82101	8.02816
23.47131	-11.82101	8.02816
23.47552	-11.84298	8.02816
23.47969	-11.84298	8.02816
23.48395	-11.84298	8.02816
23.48825	-11.88693	8.02816
23.49246	-11.88693	8.02816
23.49665	-11.90890	8.02816
23.50084	-11.90890	8.02816
23.50504	-11.90890	8.02816
23.50927	-11.93088	8.02816
23.51348	-11.93088	8.02816
23.51779	-11.95285	8.02816
23.52200	-11.97482	8.02816
23.52622	-11.97482	8.02816
23.53043	-11.97482	8.02816
23.53473	-11.99679	8.02816
23.53893	-11.99679	8.02816
23.54312	-12.01877	8.02816
23.54753	-12.01877	8.02816
23.55175	-12.01877	8.02816
23.55595	-12.01877	8.02816
23.56015	-12.06271	8.02816
23.56435	-12.06271	8.02816
23.56856	-12.06271	8.02816
23.57277	-12.08468	8.02816
23.57722	-12.10666	8.02816
23.58153	-12.10666	8.02816
23.58577	-12.10666	8.02816
23.58998	-12.10666	8.02816
23.59419	-12.12863	8.02816
23.59840	-12.12863	8.02816
23.60260	-12.15060	8.02816
23.60791	-12.17257	8.02816
23.61221	-12.17257	8.02816
23.61642	-12.19455	8.02816
23.62060	-12.19455	8.02816
23.62477	-12.19455	8.02816
23.62894	-12.19455	8.02816
23.63311	-12.21652	8.02816
23.63745	-12.21652	8.02816
23.64170	-12.23849	8.02816
23.64588	-12.23849	8.02816
23.65005	-12.23849	8.02816
23.65422	-12.26047	8.02816
23.65838	-12.26047	8.02816
23.66255	-12.28244	8.02816
23.66672	-12.28244	8.02816
23.67099	-12.28244	8.02816
23.67518	-12.28244	8.02816
23.67934	-12.30441	8.02816
23.68351	-12.30441	8.02816
23.68766	-12.30441	8.02816
23.69182	-12.32638	8.02816
23.69599	-12.32638	8.02816
23.70026	-12.34836	8.02816
23.70445	-12.34836	8.02816
23.70862	-12.34836	8.02816
23.71279	-12.37033	8.02816
23.71698	-12.37033	8.02816
23.72117	-12.37033	8.02816
23.72536	-12.37033	8.02816
23.72972	-12.39230	8.02816
23.73394	-12.39230	8.02816
23.73824	-12.41427	8.02816
23.74243	-12.39230	8.02816
23.74662	-12.39230	8.02816
23.75080	-12.41427	8.02816
23.75499	-12.41427	8.02816
23.75922	-12.41427	8.02816
23.76349	-12.43625	8.02816
23.76770	-12.43625	8.02816
23.77189	-12.43625	8.02816
23.77607	-12.43625	8.02816
23.78026	-12.43625	8.02816
23.78445	-12.43625	8.02816
23.78864	-12.45822	8.02816
23.79294	-12.45822	8.02816
23.79714	-12.45822	8.02816
23.80134	-12.45822	8.02816
23.80552	-12.45822	8.02816
23.80971	-12.45822	8.02816
23.81390	-12.45822	8.02816
23.81809	-12.45822	8.02816
23.82239	-12.48019	8.02816
23.82660	-12.48019	8.02816
23.83079	-12.48019	8.02816
23.83498	-12.48019	8.02816
23.83927	-12.48019	8.02816
23.84346	-12.48019	8.02816
23.84766	-12.48019	8.02816
23.85196	-12.48019	8.02816
23.85622	-12.48019	8.02816
23.86041	-12.48019	8.02816
23.86461	-12.48019	8.02816
23.86880	-12.48019	8.02816
23.87300	-12.50216	8.02816
23.87719	-12.50216	8.02816
23.88143	-12.48019	8.02816
23.88571	-12.48019	8.02816
23.88991	-12.48019	8.02816
23.89411	-12.48019	8.02816
23.89830	-12.48019	8.02816
23.90253	-12.48019	8.02816
23.90674	-12.48019	8.02816
23.91094	-12.48019	8.02816
23.91524	-12.48019	8.02816
23.91946	-12.48019	8.02816
23.92367	-12.45822	8.02816
23.92786	-12.45822	8.02816
23.93204	-12.48019	8.02816
23.93623	-12.45822	8.02816
23.94052	-12.45822	8.02816
23.94483	-12.45822	8.02816
23.94904	-12.43625	8.02816
23.95323	-12.45822	8.02816
23.95742	-12.45822	8.02816
23.96161	-12.43625	8.02816
23.96580	-12.43625	8.02816
23.96999	-12.43625	8.02816
23.97434	-12.43625	8.02816
23.97860	-12.43625	8.02816
23.98280	-12.43625	8.02816
23.98700	-12.41427	8.02816
23.99120	-12.41427	8.02816
23.99539	-12.41427	8.02816
23.99959	-12.41427	8.02816
24.00384	-12.39230	8.02816
24.00812	-12.39230	8.02816
24.01233	-12.39230	8.02816
24.01653	-12.39230	8.02816
24.02072	-12.37033	8.02816
24.02491	-12.37033	8.02816
24.02910	-12.37033	8.02816
24.03329	-12.34836	8.02816
24.03758	-12.34836	8.02816
24.04189	-12.34836	8.02816
24.04608	-12.32638	8.02816
24.05026	-12.32638	8.02816
24.05445	-12.32638	8.02816
24.05864	-12.32638	8.02816
24.06282	-12.32638	8.02816
24.06715	-12.30441	8.02816
24.07137	-12.30441	8.02816
24.07557	-12.30441	8.02816
24.07976	-12.28244	8.02816
24.08395	-12.28244	8.02816
24.08814	-12.28244	8.02816
24.09233	-12.26047	8.02816
24.09663	-12.26047	8.02816
24.10088	-12.23849	8.02816
24.10508	-12.23849	8.02816
24.10928	-12.23849	8.02816
24.11347	-12.23849	8.02816
24.11766	-12.19455	8.02816
24.12185	-12.19455	8.02816
24.12609	-12.19455	8.02816
24.13037	-12.17257	8.02816
24.13457	-12.17257	8.02816
24.13876	-12.15060	8.02816
24.14306	-12.15060	8.02816
24.14725	-12.15060	8.02816
24.15144	-12.12863	8.02816
24.15563	-12.10666	8.02816
24.15993	-12.10666	8.02816
24.16414	-12.08468	8.02816
24.16834	-12.08468	8.02816
24.17254	-12.08468	8.02816
24.17673	-12.06271	8.02816
24.18092	-12.06271	8.02816
24.18510	-12.04074	8.02816
24.18940	-12.04074	8.02816
24.19361	-12.01877	8.02816
24.19780	-12.01877	8.02816
24.20199	-11.99679	8.02816
24.20618	-11.99679	8.02816
24.21037	-11.97482	8.02816
24.21455	-11.95285	8.02816
24.21888	-11.95285	8.02816
24.22314	-11.95285	8.02816
24.22734	-11.93088	8.02816
24.23154	-11.93088	8.02816
24.23574	-11.90890	8.02816
24.23993	-11.90890	8.02816
24.24424	-11.88693	8.02816
24.24848	-11.88693	8.02816
24.25276	-11.86496	8.02816
24.25696	-11.86496	8.02816
24.26115	-11.84298	8.02816
24.26534	-11.84298	8.02816
24.26956	-11.79904	8.02816
24.27376	-11.79904	8.02816
24.27796	-11.79904	8.02816
24.28227	-11.77707	8.02816
24.28648	-11.75509	8.02816
24.29067	-11.75509	8.02816
24.29486	-11.73312	8.02816
24.29905	-11.73312	8.02816
24.30323	-11.73312	8.02816
24.30742	-11.71115	8.02816
24.31174	-11.68918	8.02816
24.31594	-11.68918	8.02816
24.32014	-11.66720	8.02816
24.32433	-11.66720	8.02816
24.32851	-11.64523	8.02816
24.33270	-11.64523	8.02816
24.33688	-11.62326	8.02816
24.34118	-11.62326	8.02816
24.34555	-11.57931	8.02816
24.34975	-11.57931	8.02816
24.35395	-11.57931	8.02816
24.35814	-11.55734	8.02816
24.36234	-11.55734	8.02816
24.36653	-11.53537	8.02816
24.37079	-11.53537	8.02816
24.37507	-11.49142	8.02816
24.37927	-11.49142	8.02816
24.38346	-11.49142	8.02816
24.38765	-11.49142	8.02816
24.39184	-11.46945	8.02816
24.39603	-11.44748	8.02816
24.40022	-11.42550	8.02816
24.40451	-11.42550	8.02816
24.40876	-11.40353	8.02816
24.41295	-11.40353	8.02816
24.41714	-11.38156	8.02816
24.42133	-11.38156	8.02816
24.42552	-11.35959	8.02816
24.42971	-11.35959	8.02816
24.43402	-11.33761	8.02816
24.43822	-11.31564	8.02816
24.44241	-11.29367	8.02816
24.44671	-11.29367	8.02816
24.45089	-11.27170	8.02816
24.45508	-11.27170	8.02816
24.45927	-11.27170	8.02816
24.46359	-11.24972	8.02816
24.46789	-11.24972	8.02816
24.47210	-11.22775	8.02816
24.47631	-11.20578	8.02816
24.48051	-11.20578	8.02816
24.48471	-11.20578	8.02816
24.48891	-11.18381	8.02816
24.49317	-11.18381	8.02816
24.49746	-11.16183	8.02816
24.50166	-11.13986	8.02816
24.50585	-11.13986	8.02816
24.51004	-11.13986	8.02816
24.51422	-11.11789	8.02816
24.51841	-11.09591	8.02816
24.52260	-11.09591	8.02816
24.52690	-11.09591	8.02816
24.53110	-11.07394	8.02816
24.53530	-11.07394	8.02816
24.53949	-11.05197	8.02816
24.54367	-11.05197	8.02816
24.54799	-11.03000	8.02816
24.55218	-11.03000	8.02816
24.55650	-11.03000	8.02816
24.56071	-11.00802	8.02816
24.56490	-11.00802	8.02816
24.56911	-10.98605	8.02816
24.57330	-10.98605	8.02816
24.57749	-10.98605	8.02816
24.58168	-10.96408	8.02816
24.58600	-10.94211	8.02816
24.59025	-10.94211	8.02816
24.59445	-10.94211	8.02816
24.59864	-10.92013	8.02816
24.60284	-10.92013	8.02816
24.60703	-10.92013	8.02816
24.61123	-10.89816	8.02816
24.61547	-10.89816	8.02816
24.61977	-10.89816	8.02816
24.62397	-10.87619	8.02816
24.62817	-10.87619	8.02816
24.63236	-10.87619	8.02816
24.63655	-10.85422	8.02816
24.64075	-10.87619	8.02816
24.64493	-10.87619	8.02816
24.64933	-10.85422	8.02816
24.65353	-10.85422	8.02816
24.65772	-10.81027	8.02816
24.66190	-10.83224	8.02816
24.66609	-10.81027	8.02816
24.67029	-10.81027	8.02816
24.67448	-10.81027	8.02816
24.67879	-10.81027	8.02816
24.68300	-10.81027	8.02816
24.68720	-10.81027	8.02816
24.69139	-10.78830	8.02816
24.69558	-10.78830	8.02816
24.69977	-10.78830	8.02816
24.70396	-10.78830	8.02816
24.70826	-10.76632	8.02816
24.71251	-10.78830	8.02816
24.71671	-10.76632	8.02816
24.72090	-10.76632	8.02816
24.72510	-10.76632	8.02816
24.72930	-10.76632	8.02816
24.73349	-10.76632	8.02816
24.73773	-10.76632	8.02816
24.74201	-10.74435	8.02816
24.74621	-10.74435	8.02816
24.75051	-10.76632	8.02816
24.75470	-10.74435	8.02816
24.75889	-10.74435	8.02816
24.76307	-10.74435	8.02816
24.76731	-10.74435	8.02816
24.77163	-10.74435	8.02816
24.77583	-10.74435	8.02816
24.78002	-10.74435	8.02816
24.78421	-10.74435	8.02816
24.78840	-10.74435	8.02816
24.79258	-10.74435	8.02816
24.79677	-10.74435	8.02816
24.80107	-10.72238	8.02816
24.80528	-10.72238	8.02816
24.80947	-10.74435	8.02816
24.81365	-10.72238	8.02816
24.81784	-10.74435	8.02816
24.82203	-10.74435	8.02816
24.82622	-10.74435	8.02816
24.83052	-10.74435	8.02816
24.83478	-10.74435	8.02816
24.83898	-10.74435	8.02816
24.84318	-10.74435	8.02816
24.84737	-10.74435	8.02816
24.85167	-10.74435	8.02816
24.85586	-10.74435	8.02816
24.86011	-10.74435	8.02816
24.86439	-10.74435	8.02816
24.86865	-10.76632	8.02816
24.87285	-10.74435	8.02816
24.87704	-10.76632	8.02816
24.88123	-10.76632	8.02816
24.88542	-10.76632	8.02816
24.88961	-10.76632	8.02816
24.89391	-10.76632	8.02816
24.89811	-10.76632	8.02816
24.90231	-10.78830	8.02816
24.90650	-10.76632	8.02816
24.91070	-10.76632	8.02816
24.91488	-10.78830	8.02816
24.91908	-10.78830	8.02816
24.92340	-10.76632	8.02816
24.92764	-10.78830	8.02816
24.93183	-10.78830	8.02816
24.93602	-10.78830	8.02816
24.94021	-10.81027	8.02816
24.94440	-10.78830	8.02816
24.94859	-10.81027	8.02816
24.95308	-10.81027	8.02816
24.95732	-10.81027	8.02816
24.96152	-10.81027	8.02816
24.96571	-10.81027	8.02816
24.96992	-10.81027	8.02816
24.97413	-10.83224	8.02816
24.97833	-10.83224	8.02816
24.98258	-10.83224	8.02816
24.98686	-10.83224	8.02816
24.99107	-10.83224	8.02816
24.99527	-10.83224	8.02816
24.99947	-10.85422	8.02816
25.00366	-10.83224	8.02816
25.00785	-10.85422	8.02816
25.01204	-10.85422	8.02816
25.01634	-10.85422	8.02816
25.02055	-10.85422	8.02816
25.02474	-10.87619	8.02816
25.02893	-10.85422	8.02816
25.03313	-10.87619	8.02816
25.03733	-10.87619	8.02816
25.04153	-10.85422	8.02816
25.04584	-10.87619	8.02816
25.05005	-10.89816	8.02816
25.05435	-10.87619	8.02816
25.05854	-10.89816	8.02816
25.06272	-10.89816	8.02816
25.06692	-10.89816	8.02816
25.07112	-10.89816	8.02816
25.07548	-10.92013	8.02816
25.07976	-10.92013	8.02816
25.08396	-10.92013	8.02816
25.08815	-10.92013	8.02816
25.09234	-10.92013	8.02816
25.09653	-10.94211	8.02816
25.10071	-10.94211	8.02816
25.10497	-10.94211	8.02816
25.10925	-10.96408	8.02816
25.11345	-10.94211	8.02816
25.11765	-10.96408	8.02816
25.12184	-10.96408	8.02816
25.12603	-10.96408	8.02816
25.13021	-10.98605	8.02816
25.13440	-10.96408	8.02816
25.13870	-10.98605	8.02816
25.14297	-10.98605	8.02816
25.14718	-10.98605	8.02816
25.15140	-10.98605	8.02816
25.15572	-11.00802	8.02816
25.15992	-10.98605	8.02816
25.16411	-11.00802	8.02816
25.16846	-11.00802	8.02816
25.17269	-11.00802	8.02816
25.17688	-11.00802	8.02816
25.18107	-11.03000	8.02816
25.18526	-11.03000	8.02816
25.18945	-11.05197	8.02816
25.19363	-11.03000	8.02816
25.19794	-11.03000	8.02816
25.20220	-11.05197	8.02816
25.20640	-11.05197	8.02816
25.21059	-11.05197	8.02816
25.21479	-11.07394	8.02816
25.21899	-11.07394	8.02816
25.22318	-11.07394	8.02816
25.22742	-11.07394	8.02816
25.23172	-11.07394	8.02816
25.23592	-11.07394	8.02816
25.24011	-11.09591	8.02816
25.24430	-11.09591	8.02816
25.24849	-11.11789	8.02816
25.25267	-11.11789	8.02816
25.25696	-11.11789	8.02816
25.26125	-11.11789	8.02816
25.26545	-11.11789	8.02816
25.26966	-11.11789	8.02816
25.27386	-11.13986	8.02816
25.27805	-11.13986	8.02816
25.28224	-11.11789	8.02816
25.28642	-11.13986	8.02816
25.29075	-11.13986	8.02816
25.29498	-11.13986	8.02816
25.29918	-11.16183	8.02816
25.30337	-11.16183	8.02816
25.30756	-11.16183	8.02816
25.31176	-11.18381	8.02816
25.31595	-11.16183	8.02816
25.32027	-11.16183	8.02816
25.32454	-11.18381	8.02816
25.32875	-11.18381	8.02816
25.33295	-11.18381	8.02816
25.33714	-11.18381	8.02816
25.34133	-11.18381	8.02816
25.34553	-11.20578	8.02816
25.34976	-11.20578	8.02816
25.35404	-11.20578	8.02816
25.35835	-11.22775	8.02816
25.36254	-11.22775	8.02816
25.36674	-11.20578	8.02816
25.37095	-11.22775	8.02816
25.37515	-11.20578	8.02816
25.37934	-11.22775	8.02816
25.38368	-11.22775	8.02816
25.38789	-11.22775	8.02816
25.39209	-11.20578	8.02816
25.39629	-11.22775	8.02816
25.40048	-11.22775	8.02816
25.40468	-11.24972	8.02816
25.40889	-11.24972	8.02816
25.41322	-11.24972	8.02816
25.41743	-11.22775	8.02816
25.42162	-11.24972	8.02816
25.42581	-11.24972	8.02816
25.43000	-11.24972	8.02816
25.43419	-11.24972	8.02816
25.43837	-11.24972	8.02816
25.44267	-11.27170	8.02816
25.44692	-11.27170	8.02816
25.45112	-11.24972	8.02816
25.45531	-11.27170	8.02816
25.45963	-11.27170	8.02816
25.46382	-11.27170	8.02816
25.46802	-11.27170	8.02816
25.47228	-11.27170	8.02816
25.47656	-11.29367	8.02816
25.48077	-11.27170	8.02816
25.48496	-11.27170	8.02816
25.48916	-11.29367	8.02816
25.49336	-11.29367	8.02816
25.49755	-11.27170	8.02816
25.50173	-11.29367	8.02816
25.50604	-11.29367	8.02816
25.51024	-11.29367	8.02816
25.51443	-11.29367	8.02816
25.51862	-11.29367	8.02816
25.52281	-11.29367	8.02816
25.52700	-11.31564	8.02816
25.53120	-11.29367	8.02816
25.53550	-11.31564	8.02816
25.53971	-11.31564	8.02816
25.54389	-11.31564	8.02816
25.54808	-11.31564	8.02816
25.55227	-11.33761	8.02816
25.55646	-11.31564	8.02816
25.56075	-11.33761	8.02816
25.56508	-11.31564	8.02816
25.56935	-11.31564	8.02816
25.57356	-11.31564	8.02816
25.57775	-11.33761	8.02816
25.58195	-11.31564	8.02816
25.58614	-11.33761	8.02816
25.59034	-11.33761	8.02816
25.59458	-11.33761	8.02816
25.59886	-11.33761	8.02816
25.60308	-11.35959	8.02816
25.60728	-11.35959	8.02816
25.61147	-11.35959	8.02816
25.61567	-11.35959	8.02816
25.61987	-11.35959	8.02816
25.62406	-11.35959	8.02816
25.62836	-11.35959	8.02816
25.63258	-11.35959	8.02816
25.63678	-11.38156	8.02816
25.64097	-11.35959	8.02816
25.64517	-11.38156	8.02816
25.64936	-11.38156	8.02816
25.65355	-11.38156	8.02816
25.65787	-11.38156	8.02816
25.66219	-11.38156	8.02816
25.66638	-11.38156	8.02816
25.67058	-11.40353	8.02816
25.67478	-11.38156	8.02816
25.67897	-11.38156	8.02816
25.68316	-11.40353	8.02816
25.68746	-11.40353	8.02816
25.69172	-11.40353	8.02816
25.69592	-11.40353	8.02816
25.70014	-11.40353	8.02816
25.70433	-11.40353	8.02816
25.70853	-11.42550	8.02816
25.71272	-11.42550	8.02816
25.71696	-11.42550	8.02816
25.72124	-11.42550	8.02816
25.72544	-11.42550	8.02816
25.72964	-11.42550	8.02816
25.73383	-11.44748	8.02816
25.73802	-11.44748	8.02816
25.74221	-11.46945	8.02816
25.74640	-11.44748	8.02816
25.75069	-11.46945	8.02816
25.75489	-11.46945	8.02816
25.75908	-11.44748	8.02816
25.76337	-11.44748	8.02816
25.76757	-11.46945	8.02816
25.77178	-11.46945	8.02816
25.77597	-11.46945	8.02816
25.78028	-11.46945	8.02816
25.78449	-11.46945	8.02816
25.78868	-11.46945	8.02816
25.79287	-11.49142	8.02816
25.79706	-11.46945	8.02816
25.80125	-11.49142	8.02816
25.80543	-11.49142	8.02816
25.80973	-11.49142	8.02816
25.81397	-11.49142	8.02816
25.81817	-11.49142	8.02816
25.82237	-11.49142	8.02816
25.82656	-11.51339	8.02816
25.83076	-11.49142	8.02816
25.83496	-11.49142	8.02816
25.83920	-11.51339	8.02816
25.84347	-11.49142	8.02816
25.84768	-11.51339	8.02816
25.85187	-11.51339	8.02816
25.85606	-11.51339	8.02816
25.86024	-11.51339	8.02816
25.86453	-11.53537	8.02816
25.86877	-11.51339	8.02816
25.87308	-11.53537	8.02816
25.87728	-11.53537	8.02816
25.88148	-11.53537	8.02816
25.88567	-11.53537	8.02816
25.88986	-11.53537	8.02816
25.89404	-11.53537	8.02816
25.89823	-11.53537	8.02816
25.90255	-11.53537	8.02816
25.90677	-11.55734	8.02816
25.91096	-11.55734	8.02816
25.91515	-11.53537	8.02816
25.91935	-11.53537	8.02816
25.92354	-11.55734	8.02816
25.92774	-11.53537	8.02816
25.93207	-11.55734	8.02816
25.93633	-11.55734	8.02816
25.94053	-11.55734	8.02816
25.94473	-11.55734	8.02816
25.94892	-11.55734	8.02816
25.95312	-11.55734	8.02816
25.95731	-11.57931	8.02816
25.96155	-11.55734	8.02816
25.96594	-11.55734	8.02816
25.97017	-11.57931	8.02816
25.97437	-11.55734	8.02816
25.97858	-11.55734	8.02816
25.98278	-11.57931	8.02816
25.98697	-11.57931	8.02816
25.99116	-11.57931	8.02816
25.99547	-11.57931	8.02816
25.99969	-11.57931	8.02816
26.00389	-11.57931	8.02816
26.00808	-11.57931	8.02816
26.01228	-11.57931	8.02816
26.01647	-11.57931	8.02816
26.02066	-11.57931	8.02816
26.02497	-11.57931	8.02816
26.02919	-11.57931	8.02816
26.03339	-11.57931	8.02816
26.03759	-11.57931	8.02816
26.04178	-11.60129	8.02816
26.04596	-11.60129	8.02816
26.05015	-11.57931	8.02816
26.05446	-11.60129	8.02816
26.05871	-11.57931	8.02816
26.06291	-11.60129	8.02816
26.06723	-11.60129	8.02816
26.07144	-11.60129	8.02816
26.07565	-11.60129	8.02816
26.07985	-11.60129	8.02816
26.08411	-11.57931	8.02816
26.08839	-11.60129	8.02816
26.09259	-11.60129	8.02816
26.09678	-11.60129	8.02816
26.10096	-11.60129	8.02816
26.10515	-11.60129	8.02816
26.10934	-11.60129	8.02816
26.11352	-11.62326	8.02816
26.11782	-11.60129	8.02816
26.12202	-11.60129	8.02816
26.12621	-11.60129	8.02816
26.13040	-11.60129	8.02816
26.13459	-11.60129	8.02816
26.13878	-11.60129	8.02816
26.14297	-11.60129	8.02816
26.14727	-11.60129	8.02816
26.15148	-11.60129	8.02816
26.15568	-11.60129	8.02816
26.15987	-11.60129	8.02816
26.16406	-11.60129	8.02816
26.16835	-11.60129	8.02816
26.17256	-11.60129	8.02816
26.17688	-11.60129	8.02816
26.18114	-11.60129	8.02816
26.18534	-11.60129	8.02816
26.18954	-11.62326	8.02816
26.19373	-11.60129	8.02816
26.19792	-11.62326	8.02816
26.20212	-11.60129	8.02816
26.20636	-11.60129	8.02816
26.21064	-11.62326	8.02816
26.21484	-11.60129	8.02816
26.21904	-11.60129	8.02816
26.22323	-11.60129	8.02816
26.22743	-11.60129	8.02816
26.23163	-11.60129	8.02816
26.23582	-11.62326	8.02816
26.24013	-11.60129	8.02816
26.24433	-11.60129	8.02816
26.24852	-11.60129	8.02816
26.25271	-11.60129	8.02816
26.25690	-11.60129	8.02816
26.26109	-11.62326	8.02816
26.26527	-11.60129	8.02816
26.26970	-11.60129	8.02816
26.27391	-11.60129	8.02816
26.27811	-11.60129	8.02816
26.28230	-11.60129	8.02816
26.28649	-11.60129	8.02816
26.29068	-11.60129	8.02816
26.29487	-11.60129	8.02816
26.29916	-11.57931	8.02816
26.30342	-11.60129	8.02816
26.30763	-11.60129	8.02816
26.31182	-11.60129	8.02816
26.31602	-11.60129	8.02816
26.32021	-11.60129	8.02816
26.32440	-11.60129	8.02816
26.32864	-11.60129	8.02816
26.33291	-11.60129	8.02816
26.33712	-11.60129	8.02816
26.34131	-11.60129	8.02816
26.34550	-11.60129	8.02816
26.34968	-11.57931	8.02816
26.35387	-11.60129	8.02816
26.35806	-11.57931	8.02816
26.36235	-11.57931	8.02816
26.36655	-11.60129	8.02816
26.37089	-11.60129	8.02816
26.37508	-11.57931	8.02816
26.37927	-11.60129	8.02816
26.38345	-11.57931	8.02816
26.38765	-11.57931	8.02816
26.39195	-11.57931	8.02816
26.39616	-11.57931	8.02816
26.40035	-11.57931	8.02816
26.40455	-11.57931	8.02816
26.40876	-11.57931	8.02816
26.41296	-11.57931	8.02816
26.41715	-11.57931	8.02816
26.42151	-11.55734	8.02816
26.42574	-11.57931	8.02816
26.42994	-11.55734	8.02816
26.43414	-11.55734	8.02816
26.43833	-11.57931	8.02816
26.44253	-11.55734	8.02816
26.44673	-11.55734	8.02816
26.45097	-11.55734	8.02816
26.45525	-11.55734	8.02816
26.45946	-11.55734	8.02816
26.46374	-11.55734	8.02816
26.46797	-11.55734	8.02816
26.47235	-11.55734	8.02816
26.47659	-11.55734	8.02816
26.48100	-11.53537	8.02816
26.48536	-11.55734	8.02816
26.48961	-11.53537	8.02816
26.49384	-11.53537	8.02816
26.49805	-11.53537	8.02816
26.50227	-11.53537	8.02816
26.50650	-11.53537	8.02816
26.51072	-11.53537	8.02816
26.51509	-11.53537	8.02816
26.51933	-11.53537	8.02816
26.52353	-11.53537	8.02816
26.52770	-11.53537	8.02816
26.53190	-11.53537	8.02816
26.53609	-11.53537	8.02816
26.54029	-11.53537	8.02816
26.54460	-11.53537	8.02816
26.54881	-11.53537	8.02816
26.55301	-11.53537	8.02816
26.55720	-11.53537	8.02816
26.56139	-11.51339	8.02816
26.56558	-11.51339	8.02816
26.56976	-11.53537	8.02816
26.57422	-11.51339	8.02816
26.57845	-11.51339	8.02816
26.58264	-11.51339	8.02816
26.58684	-11.51339	8.02816
26.59103	-11.51339	8.02816
26.59521	-11.51339	8.02816
26.59940	-11.51339	8.02816
26.60368	-11.51339	8.02816
26.60796	-11.51339	8.02816
26.61216	-11.51339	8.02816
26.61635	-11.51339	8.02816
26.62054	-11.51339	8.02816
26.62473	-11.51339	8.02816
26.62891	-11.51339	8.02816
26.63310	-11.51339	8.02816
26.63741	-11.51339	8.02816
26.64161	-11.49142	8.02816
26.64579	-11.49142	8.02816
26.64998	-11.49142	8.02816
26.65417	-11.51339	8.02816
26.65836	-11.51339	8.02816
26.66255	-11.49142	8.02816
26.66685	-11.49142	8.02816
26.67106	-11.49142	8.02816
26.67535	-11.51339	8.02816
26.67955	-11.49142	8.02816
26.68374	-11.49142	8.02816
26.68793	-11.49142	8.02816
26.69211	-11.51339	8.02816
26.69644	-11.49142	8.02816
26.70070	-11.49142	8.02816
26.70493	-11.49142	8.02816
26.70913	-11.49142	8.02816
26.71332	-11.49142	8.02816
26.71751	-11.49142	8.02816
26.72169	-11.49142	8.02816
26.72594	-11.49142	8.02816
26.73021	-11.46945	8.02816
26.73442	-11.49142	8.02816
26.73861	-11.49142	8.02816
26.74280	-11.49142	8.02816
26.74698	-11.49142	8.02816
26.75117	-11.49142	8.02816
26.75536	-11.49142	8.02816
26.75967	-11.49142	8.02816
26.76388	-11.49142	8.02816
26.76807	-11.46945	8.02816
26.77225	-11.49142	8.02816
26.77655	-11.49142	8.02816
26.78073	-11.46945	8.02816
26.78492	-11.49142	8.02816
26.78922	-11.49142	8.02816
26.79343	-11.49142	8.02816
26.79761	-11.51339	8.02816
26.80180	-11.49142	8.02816
26.80599	-11.49142	8.02816
26.81017	-11.49142	8.02816
26.81436	-11.49142	8.02816
26.81868	-11.49142	8.02816
26.82293	-11.49142	8.02816
26.82712	-11.49142	8.02816
26.83130	-11.49142	8.02816
26.83549	-11.49142	8.02816
26.83968	-11.49142	8.02816
26.84388	-11.49142	8.02816
26.84813	-11.49142	8.02816
26.85240	-11.51339	8.02816
26.85660	-11.49142	8.02816
26.86078	-11.49142	8.02816
26.86497	-11.49142	8.02816
26.86916	-11.49142	8.02816
26.87335	-11.49142	8.02816
26.87764	-11.49142	8.02816
26.88194	-11.51339	8.02816
26.88615	-11.49142	8.02816
26.89034	-11.49142	8.02816
26.89452	-11.49142	8.02816
26.89871	-11.49142	8.02816
26.90290	-11.49142	8.02816
26.90711	-11.49142	8.02816
26.91144	-11.49142	8.02816
26.91568	-11.51339	8.02816
26.91987	-11.49142	8.02816
26.92406	-11.49142	8.02816
26.92825	-11.51339	8.02816
26.93244	-11.51339	8.02816
26.93663	-11.49142	8.02816
26.94094	-11.51339	8.02816
26.94518	-11.49142	8.02816
26.94937	-11.49142	8.02816
26.95356	-11.51339	8.02816
26.95775	-11.49142	8.02816
26.96194	-11.51339	8.02816
26.96613	-11.51339	8.02816
26.97037	-11.49142	8.02816
26.97464	-11.49142	8.02816
26.97898	-11.51339	8.02816
26.98317	-11.49142	8.02816
26.98736	-11.51339	8.02816
26.99156	-11.51339	8.02816
26.99575	-11.51339	8.02816
26.99993	-11.51339	8.02816
27.00423	-11.51339	8.02816
27.00842	-11.51339	8.02816
27.01261	-11.51339	8.02816
27.01680	-11.51339	8.02816
27.02099	-11.51339	8.02816
27.02518	-11.51339	8.02816
27.02936	-11.51339	8.02816
27.03366	-11.51339	8.02816
27.03786	-11.53537	8.02816
27.04205	-11.51339	8.02816
27.04625	-11.53537	8.02816
27.05044	-11.53537	8.02816
27.05462	-11.51339	8.02816
27.05881	-11.53537	8.02816
27.06311	-11.53537	8.02816
27.06734	-11.51339	8.02816
27.07153	-11.53537	8.02816
27.07568	-11.53537	8.02816
27.07998	-11.53537	8.02816
27.08416	-11.53537	8.02816
27.08835	-11.53537	8.02816
27.09259	-11.53537	8.02816
27.09686	-11.55734	8.02816
27.10114	-11.53537	8.02816
27.10537	-11.55734	8.02816
27.10957	-11.55734	8.02816
27.11375	-11.55734	8.02816
27.11794	-11.53537	8.02816
27.12213	-11.55734	8.02816
27.12643	-11.53537	8.02816
27.13064	-11.55734	8.02816
27.13484	-11.55734	8.02816
27.13903	-11.55734	8.02816
27.14321	-11.55734	8.02816
27.14741	-11.57931	8.02816
27.15161	-11.55734	8.02816
27.15591	-11.57931	8.02816
27.16012	-11.57931	8.02816
27.16430	-11.55734	8.02816
27.16849	-11.57931	8.02816
27.17268	-11.57931	8.02816
27.17687	-11.57931	8.02816
27.18116	-11.60129	8.02816
27.18547	-11.60129	8.02816
27.18970	-11.57931	8.02816
27.19389	-11.60129	8.02816
27.19808	-11.57931	8.02816
27.20227	-11.60129	8.02816
27.20646	-11.60129	8.02816
27.21065	-11.60129	8.02816
27.21489	-11.60129	8.02816
27.21915	-11.62326	8.02816
27.22336	-11.60129	8.02816
27.22756	-11.62326	8.02816
27.23175	-11.60129	8.02816
27.23594	-11.60129	8.02816
27.24013	-11.62326	8.02816
27.24432	-11.62326	8.02816
27.24862	-11.60129	8.02816
27.25283	-11.62326	8.02816
27.25701	-11.62326	8.02816
27.26120	-11.62326	8.02816
27.26539	-11.62326	8.02816
27.26958	-11.62326	8.02816
27.27376	-11.62326	8.02816
27.27807	-11.64523	8.02816
27.28238	-11.62326	8.02816
27.28657	-11.64523	8.02816
27.29076	-11.64523	8.02816
27.29495	-11.64523	8.02816
27.29914	-11.64523	8.02816
27.30332	-11.66720	8.02816
27.30764	-11.64523	8.02816
27.31187	-11.64523	8.02816
27.31606	-11.64523	8.02816
27.32025	-11.64523	8.02816
27.32443	-11.66720	8.02816
27.32862	-11.66720	8.02816
27.33281	-11.66720	8.02816
27.33705	-11.66720	8.02816
27.34131	-11.66720	8.02816
27.34551	-11.66720	8.02816
27.34970	-11.68918	8.02816
27.35389	-11.66720	8.02816
27.35808	-11.66720	8.02816
27.36227	-11.68918	8.02816
27.36646	-11.66720	8.02816
27.37077	-11.66720	8.02816
27.37497	-11.68918	8.02816
27.37916	-11.68918	8.02816
27.38346	-11.68918	8.02816
27.38765	-11.68918	8.02816
27.39184	-11.68918	8.02816
27.39603	-11.68918	8.02816
27.40032	-11.68918	8.02816
27.40453	-11.68918	8.02816
27.40872	-11.71115	8.02816
27.41290	-11.68918	8.02816
27.41709	-11.68918	8.02816
27.42128	-11.68918	8.02816
27.42547	-11.68918	8.02816
27.42978	-11.68918	8.02816
27.43402	-11.71115	8.02816
27.43820	-11.68918	8.02816
27.44239	-11.71115	8.02816
27.44659	-11.71115	8.02816
27.45079	-11.71115	8.02816
27.45497	-11.68918	8.02816
27.45922	-11.73312	8.02816
27.46349	-11.71115	8.02816
27.46770	-11.71115	8.02816
27.47189	-11.71115	8.02816
27.47608	-11.71115	8.02816
27.48026	-11.71115	8.02816
27.48456	-11.71115	8.02816
27.48877	-11.71115	8.02816
27.49307	-11.71115	8.02816
27.49728	-11.71115	8.02816
27.50147	-11.71115	8.02816
27.50566	-11.71115	8.02816
27.50986	-11.71115	8.02816
27.51405	-11.71115	8.02816
27.51824	-11.71115	8.02816
27.52273	-11.71115	8.02816
27.52697	-11.71115	8.02816
27.53118	-11.71115	8.02816
27.53540	-11.71115	8.02816
27.53962	-11.71115	8.02816
27.54382	-11.71115	8.02816
27.54802	-11.71115	8.02816
27.55301	-11.73312	8.02816
27.55728	-11.73312	8.02816
27.56149	-11.71115	8.02816
27.56569	-11.71115	8.02816
27.56989	-11.71115	8.02816
27.57409	-11.71115	8.02816
27.57829	-11.71115	8.02816
27.58301	-11.71115	8.02816
27.58738	-11.73312	8.02816
27.59158	-11.73312	8.02816
27.59578	-11.71115	8.02816
27.59997	-11.73312	8.02816
27.60416	-11.71115	8.02816
27.60835	-11.71115	8.02816
27.61261	-11.71115	8.02816
27.61689	-11.73312	8.02816
27.62109	-11.71115	8.02816
27.62529	-11.71115	8.02816
27.62948	-11.71115	8.02816
27.63367	-11.71115	8.02816
27.63786	-11.71115	8.02816
27.64204	-11.71115	8.02816
27.64634	-11.71115	8.02816
27.65056	-11.71115	8.02816
27.65476	-11.71115	8.02816
27.65895	-11.71115	8.02816
27.66314	-11.71115	8.02816
27.66732	-11.71115	8.02816
27.67151	-11.71115	8.02816
27.67580	-11.71115	8.02816
27.68001	-11.68918	8.02816
27.68421	-11.71115	8.02816
27.68850	-11.68918	8.02816
27.69269	-11.68918	8.02816
27.69688	-11.68918	8.02816
27.70107	-11.71115	8.02816
27.70537	-11.68918	8.02816
27.70961	-11.68918	8.02816
27.71380	-11.68918	8.02816
27.71799	-11.68918	8.02816
27.72218	-11.68918	8.02816
27.72637	-11.71115	8.02816
27.73056	-11.68918	8.02816
27.73480	-11.71115	8.02816
27.73907	-11.68918	8.02816
27.74327	-11.68918	8.02816
27.74746	-11.68918	8.02816
27.75166	-11.68918	8.02816
27.75585	-11.68918	8.02816
27.76004	-11.68918	8.02816
27.76423	-11.66720	8.02816
27.76852	-11.66720	8.02816
27.77273	-11.68918	8.02816
27.77692	-11.66720	8.02816
27.78111	-11.66720	8.02816
27.78530	-11.68918	8.02816
27.78960	-11.66720	8.02816
27.79378	-11.66720	8.02816
27.79809	-11.66720	8.02816
27.80230	-11.66720	8.02816
27.80649	-11.66720	8.02816
27.81068	-11.66720	8.02816
27.81487	-11.66720	8.02816
27.81906	-11.66720	8.02816
27.82324	-11.66720	8.02816
27.82757	-11.64523	8.02816
27.83181	-11.66720	8.02816
27.83601	-11.66720	8.02816
27.84020	-11.64523	8.02816
27.84439	-11.64523	8.02816
27.84857	-11.64523	8.02816
27.85276	-11.64523	8.02816
27.85702	-11.64523	8.02816
27.86129	-11.64523	8.02816
27.86549	-11.64523	8.02816
27.86968	-11.64523	8.02816
27.87387	-11.64523	8.02816
27.87806	-11.64523	8.02816
27.88225	-11.62326	8.02816
27.88644	-11.62326	8.02816
27.89084	-11.64523	8.02816
27.89504	-11.60129	8.02816
27.89924	-11.62326	8.02816
27.90343	-11.62326	8.02816
27.90763	-11.62326	8.02816
27.91182	-11.60129	8.02816
27.91600	-11.62326	8.02816
27.92031	-11.60129	8.02816
27.92452	-11.60129	8.02816
27.92871	-11.60129	8.02816
27.93290	-11.60129	8.02816
27.93709	-11.60129	8.02816
27.94128	-11.60129	8.02816
27.94547	-11.57931	8.02816
27.94976	-11.60129	8.02816
27.95400	-11.57931	8.02816
27.95820	-11.57931	8.02816
27.96239	-11.57931	8.02816
27.96658	-11.57931	8.02816
27.97077	-11.55734	8.02816
27.97496	-11.57931	8.02816
27.97920	-11.55734	8.02816
27.98348	-11.55734	8.02816
27.98768	-11.55734	8.02816
27.99198	-11.55734	8.02816
27.99617	-11.55734	8.02816
28.00035	-11.55734	8.02816
28.00454	-11.53537	8.02816
28.00873	-11.53537	8.02816
28.01302	-11.53537	8.02816
28.01723	-11.53537	8.02816
28.02143	-11.53537	8.02816
28.02561	-11.53537	8.02816
28.02980	-11.51339	8.02816
28.03399	-11.51339	8.02816
28.03817	-11.53537	8.02816
28.04248	-11.51339	8.02816
28.04668	-11.51339	8.02816
28.05088	-11.51339	8.02816
28.05507	-11.51339	8.02816
28.05926	-11.51339	8.02816
28.06345	-11.51339	8.02816
28.06764	-11.49142	8.02816
28.07196	-11.49142	8.02816
28.07620	-11.46945	8.02816
28.08039	-11.49142	8.02816
28.08458	-11.46945	8.02816
28.08877	-11.46945	8.02816
28.09306	-11.46945	8.02816
28.09725	-11.46945	8.02816
28.10150	-11.44748	8.02816
28.10577	-11.46945	8.02816
28.10996	-11.44748	8.02816
28.11415	-11.44748	8.02816
28.11834	-11.44748	8.02816
28.12253	-11.44748	8.02816
28.12672	-11.44748	8.02816
28.13090	-11.44748	8.02816
28.13520	-11.42550	8.02816
28.13941	-11.42550	8.02816
28.14360	-11.42550	8.02816
28.14779	-11.42550	8.02816
28.15198	-11.42550	8.02816
28.15617	-11.42550	8.02816
28.16035	-11.40353	8.02816
28.16465	-11.40353	8.02816
28.16886	-11.40353	8.02816
28.17305	-11.40353	8.02816
28.17724	-11.40353	8.02816
28.18143	-11.40353	8.02816
28.18562	-11.38156	8.02816
28.18980	-11.40353	8.02816
28.19424	-11.40353	8.02816
28.19845	-11.38156	8.02816
28.20265	-11.38156	8.02816
28.20683	-11.35959	8.02816
28.21102	-11.35959	8.02816
28.21521	-11.38156	8.02816
28.21940	-11.35959	8.02816
28.22370	-11.35959	8.02816
28.22799	-11.38156	8.02816
28.23220	-11.35959	8.02816
28.23640	-11.35959	8.02816
28.24059	-11.35959	8.02816
28.24478	-11.35959	8.02816
28.24897	-11.33761	8.02816
28.25315	-11.35959	8.02816
28.25745	-11.33761	8.02816
28.26166	-11.35959	8.02816
28.26585	-11.33761	8.02816
28.27004	-11.33761	8.02816
28.27423	-11.33761	8.02816
28.27842	-11.33761	8.02816
28.28261	-11.31564	8.02816
28.28691	-11.33761	8.02816
28.29112	-11.31564	8.02816
28.29542	-11.31564	8.02816
28.29962	-11.31564	8.02816
28.30381	-11.31564	8.02816
28.30799	-11.31564	8.02816
28.31218	-11.31564	8.02816
28.31648	-11.31564	8.02816
28.32072	-11.31564	8.02816
28.32491	-11.31564	8.02816
28.32910	-11.29367	8.02816
28.33329	-11.31564	8.02816
28.33748	-11.29367	8.02816
28.34166	-11.29367	8.02816
28.34590	-11.29367	8.02816
28.35019	-11.29367	8.02816
28.35439	-11.29367	8.02816
28.35858	-11.29367	8.02816
28.36277	-11.27170	8.02816
28.36696	-11.29367	8.02816
28.37114	-11.29367	8.02816
28.37533	-11.29367	8.02816
28.37964	-11.27170	8.02816
28.38386	-11.29367	8.02816
28.38805	-11.27170	8.02816
28.39224	-11.29367	8.02816
28.39653	-11.29367	8.02816
28.40072	-11.27170	8.02816
28.40490	-11.27170	8.02816
28.40923	-11.29367	8.02816
28.41345	-11.27170	8.02816
28.41766	-11.27170	8.02816
28.42185	-11.27170	8.02816
28.42604	-11.27170	8.02816
28.43023	-11.29367	8.02816
28.43442	-11.29367	8.02816
28.43873	-11.27170	8.02816
28.44297	-11.27170	8.02816
28.44716	-11.27170	8.02816
28.45136	-11.27170	8.02816
28.45556	-11.27170	8.02816
28.45975	-11.27170	8.02816
28.46394	-11.27170	8.02816
28.46820	-11.27170	8.02816
28.47250	-11.27170	8.02816
28.47671	-11.27170	8.02816
28.48090	-11.27170	8.02816
28.48510	-11.27170	8.02816
28.48930	-11.27170	8.02816
28.49350	-11.27170	8.02816
28.49780	-11.27170	8.02816
28.50211	-11.27170	8.02816
28.50632	-11.27170	8.02816
28.51051	-11.27170	8.02816
28.51470	-11.27170	8.02816
28.51889	-11.27170	8.02816
28.52308	-11.27170	8.02816
28.52726	-11.27170	8.02816
28.53159	-11.27170	8.02816
28.53581	-11.27170	8.02816
28.54000	-11.27170	8.02816
28.54419	-11.27170	8.02816
28.54838	-11.27170	8.02816
28.55257	-11.27170	8.02816
28.55676	-11.27170	8.02816
28.56108	-11.27170	8.02816
28.56536	-11.27170	8.02816
28.56957	-11.27170	8.02816
28.57378	-11.27170	8.02816
28.57800	-11.27170	8.02816
28.58221	-11.27170	8.02816
28.58644	-11.27170	8.02816
28.59167	-11.27170	8.02816
28.59598	-11.27170	8.02816
28.60030	-11.27170	8.02816
28.60451	-11.27170	8.02816
28.60872	-11.27170	8.02816
28.61293	-11.27170	8.02816
28.61713	-11.27170	8.02816
28.62253	-11.27170	8.02816
28.62684	-11.27170	8.02816
28.63106	-11.27170	8.02816
28.63527	-11.29367	8.02816
28.63947	-11.27170	8.02816
28.64368	-11.27170	8.02816
28.64788	-11.27170	8.02816
28.65214	-11.27170	8.02816
28.65642	-11.27170	8.02816
28.66062	-11.29367	8.02816
28.66482	-11.27170	8.02816
28.66902	-11.27170	8.02816
28.67321	-11.27170	8.02816
28.67740	-11.27170	8.02816
28.68159	-11.27170	8.02816
28.68591	-11.27170	8.02816
28.69012	-11.27170	8.02816
28.69431	-11.29367	8.02816
28.69850	-11.27170	8.02816
28.70279	-11.27170	8.02816
28.70698	-11.27170	8.02816
28.71117	-11.27170	8.02816
28.71548	-11.27170	8.02816
28.71970	-11.27170	8.02816
28.72390	-11.27170	8.02816
28.72809	-11.27170	8.02816
28.73228	-11.27170	8.02816
28.73647	-11.27170	8.02816
28.74066	-11.27170	8.02816
28.74498	-11.27170	8.02816
28.74924	-11.27170	8.02816
28.75344	-11.29367	8.02816
28.75763	-11.27170	8.02816
28.76183	-11.27170	8.02816
28.76602	-11.27170	8.02816
28.77020	-11.27170	8.02816
28.77445	-11.27170	8.02816
28.77873	-11.29367	8.02816
28.78293	-11.27170	8.02816
28.78712	-11.27170	8.02816
28.79131	-11.27170	8.02816
28.79550	-11.27170	8.02816
28.79968	-11.27170	8.02816
28.80397	-11.27170	8.02816
28.80826	-11.27170	8.02816
28.81247	-11.27170	8.02816
28.81666	-11.27170	8.02816
28.82085	-11.27170	8.02816
28.82504	-11.27170	8.02816
28.82923	-11.29367	8.02816
28.83342	-11.27170	8.02816
28.83771	-11.29367	8.02816
28.84192	-11.29367	8.02816
28.84611	-11.27170	8.02816
28.85031	-11.29367	8.02816
28.85450	-11.29367	8.02816
28.85868	-11.27170	8.02816
28.86288	-11.29367	8.02816
28.86718	-11.29367	8.02816
28.87146	-11.27170	8.02816
28.87567	-11.29367	8.02816
28.87986	-11.29367	8.02816
28.88405	-11.29367	8.02816
28.88825	-11.29367	8.02816
28.89243	-11.29367	8.02816
28.89670	-11.29367	8.02816
28.90100	-11.29367	8.02816
28.90532	-11.29367	8.02816
28.90951	-11.29367	8.02816
28.91370	-11.29367	8.02816
28.91789	-11.29367	8.02816
28.92208	-11.29367	8.02816
28.92626	-11.29367	8.02816
28.93057	-11.29367	8.02816
28.93478	-11.29367	8.02816
28.93898	-11.29367	8.02816
28.94317	-11.29367	8.02816
28.94735	-11.29367	8.02816
28.95155	-11.29367	8.02816
28.95574	-11.29367	8.02816
28.96004	-11.31564	8.02816
28.96425	-11.29367	8.02816
28.96845	-11.29367	8.02816
28.97264	-11.29367	8.02816
28.97683	-11.29367	8.02816
28.98102	-11.29367	8.02816
28.98521	-11.31564	8.02816
28.98954	-11.29367	8.02816
28.99378	-11.31564	8.02816
28.99798	-11.31564	8.02816
29.00217	-11.31564	8.02816
29.00647	-11.31564	8.02816
29.01065	-11.31564	8.02816
29.01484	-11.29367	8.02816
29.01910	-11.31564	8.02816
29.02337	-11.29367	8.02816
29.02762	-11.29367	8.02816
29.03181	-11.31564	8.02816
29.03600	-11.31564	8.02816
29.04019	-11.31564	8.02816
29.04438	-11.33761	8.02816
29.04857	-11.33761	8.02816
29.05287	-11.31564	8.02816
29.05708	-11.33761	8.02816
29.06127	-11.31564	8.02816
29.06546	-11.33761	8.02816
29.06965	-11.33761	8.02816
29.07384	-11.31564	8.02816
29.07803	-11.31564	8.02816
29.08235	-11.33761	8.02816
29.08656	-11.31564	8.02816
29.09075	-11.33761	8.02816
29.09494	-11.33761	8.02816
29.09913	-11.33761	8.02816
29.10332	-11.33761	8.02816
29.10762	-11.33761	8.02816
29.11193	-11.33761	8.02816
29.11617	-11.35959	8.02816
29.12037	-11.33761	8.02816
29.12455	-11.35959	8.02816
29.12874	-11.35959	8.02816
29.13293	-11.35959	8.02816
29.13712	-11.35959	8.02816
29.14136	-11.35959	8.02816
29.14563	-11.35959	8.02816
29.14983	-11.35959	8.02816
29.15402	-11.35959	8.02816
29.15821	-11.35959	8.02816
29.16240	-11.35959	8.02816
29.16658	-11.38156	8.02816
29.17077	-11.35959	8.02816
29.17507	-11.38156	8.02816
29.17927	-11.38156	8.02816
29.18346	-11.38156	8.02816
29.18766	-11.38156	8.02816
29.19185	-11.38156	8.02816
29.19604	-11.38156	8.02816
29.20023	-11.40353	8.02816
29.20452	-11.40353	8.02816
29.20883	-11.40353	8.02816
29.21305	-11.40353	8.02816
29.21725	-11.40353	8.02816
29.22145	-11.40353	8.02816
29.22566	-11.42550	8.02816
29.22986	-11.40353	8.02816
29.23419	-11.42550	8.02816
29.23844	-11.42550	8.02816
29.24264	-11.42550	8.02816
29.24683	-11.42550	8.02816
29.25102	-11.42550	8.02816
29.25521	-11.44748	8.02816
29.25939	-11.44748	8.02816
29.26365	-11.44748	8.02816
29.26793	-11.44748	8.02816
29.27213	-11.46945	8.02816
29.27632	-11.44748	8.02816
29.28051	-11.46945	8.02816
29.28470	-11.46945	8.02816
29.28889	-11.46945	8.02816
29.29308	-11.46945	8.02816
29.29738	-11.49142	8.02816
29.30159	-11.46945	8.02816
29.30579	-11.49142	8.02816
29.31008	-11.46945	8.02816
29.31427	-11.46945	8.02816
29.31846	-11.49142	8.02816
29.32264	-11.49142	8.02816
29.32694	-11.49142	8.02816
29.33115	-11.51339	8.02816
29.33535	-11.49142	8.02816
29.33955	-11.51339	8.02816
29.34374	-11.51339	8.02816
29.34793	-11.51339	8.02816
29.35212	-11.51339	8.02816
29.35643	-11.53537	8.02816
29.36067	-11.53537	8.02816
29.36486	-11.53537	8.02816
29.36905	-11.53537	8.02816
29.37324	-11.53537	8.02816
29.37743	-11.53537	8.02816
29.38162	-11.55734	8.02816
29.38587	-11.53537	8.02816
29.39014	-11.55734	8.02816
29.39434	-11.55734	8.02816
29.39853	-11.55734	8.02816
29.40271	-11.55734	8.02816
29.40691	-11.55734	8.02816
29.41121	-11.55734	8.02816
29.41540	-11.57931	8.02816
29.41973	-11.57931	8.02816
29.42393	-11.57931	8.02816
29.42812	-11.57931	8.02816
29.43233	-11.57931	8.02816
29.43652	-11.57931	8.02816
29.44071	-11.60129	8.02816
29.44490	-11.60129	8.02816
29.44921	-11.62326	8.02816
29.45342	-11.62326	8.02816
29.45761	-11.60129	8.02816
29.46180	-11.60129	8.02816
29.46600	-11.62326	8.02816
29.47022	-11.62326	8.02816
29.47442	-11.62326	8.02816
29.47881	-11.62326	8.02816
29.48308	-11.62326	8.02816
29.48729	-11.62326	8.02816
29.49149	-11.62326	8.02816
29.49568	-11.64523	8.02816
29.49987	-11.64523	8.02816
29.50406	-11.64523	8.02816
29.50832	-11.64523	8.02816
29.51271	-11.66720	8.02816
29.51692	-11.66720	8.02816
29.52111	-11.66720	8.02816
29.52530	-11.66720	8.02816
29.52949	-11.66720	8.02816
29.53368	-11.66720	8.02816
29.53786	-11.66720	8.02816
29.54216	-11.66720	8.02816
29.54637	-11.68918	8.02816
29.55056	-11.68918	8.02816
29.55475	-11.68918	8.02816
29.55894	-11.68918	8.02816
29.56312	-11.68918	8.02816
29.56731	-11.68918	8.02816
29.57163	-11.71115	8.02816
29.57584	-11.71115	8.02816
29.58003	-11.68918	8.02816
29.58422	-11.68918	8.02816
29.58842	-11.68918	8.02816
29.59260	-11.68918	8.02816
29.59679	-11.71115	8.02816
29.60110	-11.68918	8.02816
29.60534	-11.68918	8.02816
29.60953	-11.71115	8.02816
29.61382	-11.71115	8.02816
29.61801	-11.71115	8.02816
29.62220	-11.71115	8.02816
29.62639	-11.71115	8.02816
29.63063	-11.73312	8.02816
29.63492	-11.73312	8.02816
29.63912	-11.71115	8.02816
29.64331	-11.73312	8.02816
29.64750	-11.73312	8.02816
29.65168	-11.71115	8.02816
29.65587	-11.71115	8.02816
29.66005	-11.73312	8.02816
29.66435	-11.71115	8.02816
29.66856	-11.73312	8.02816
29.67275	-11.73312	8.02816
29.67694	-11.73312	8.02816
29.68113	-11.73312	8.02816
29.68532	-11.73312	8.02816
29.68952	-11.71115	8.02816
29.69383	-11.73312	8.02816
29.69803	-11.73312	8.02816
29.70223	-11.73312	8.02816
29.70642	-11.73312	8.02816
29.71061	-11.73312	8.02816
29.71490	-11.73312	8.02816
29.71909	-11.73312	8.02816
29.72339	-11.71115	8.02816
29.72764	-11.73312	8.02816
29.73183	-11.73312	8.02816
29.73602	-11.71115	8.02816
29.74021	-11.71115	8.02816
29.74440	-11.73312	8.02816
29.74859	-11.71115	8.02816
29.75284	-11.73312	8.02816
29.75712	-11.73312	8.02816
29.76132	-11.71115	8.02816
29.76552	-11.71115	8.02816
29.76972	-11.73312	8.02816
29.77391	-11.71115	8.02816
29.77810	-11.73312	8.02816
29.78229	-11.71115	8.02816
29.78659	-11.73312	8.02816
29.79079	-11.73312	8.02816
29.79498	-11.71115	8.02816
29.79917	-11.71115	8.02816
29.80336	-11.71115	8.02816
29.80756	-11.71115	8.02816
29.81174	-11.71115	8.02816
29.81615	-11.71115	8.02816
29.82035	-11.71115	8.02816
29.82454	-11.73312	8.02816
29.82873	-11.71115	8.02816
29.83292	-11.68918	8.02816
29.83711	-11.71115	8.02816
29.84130	-11.71115	8.02816
29.84561	-11.68918	8.02816
29.84986	-11.68918	8.02816
29.85405	-11.68918	8.02816
29.85825	-11.68918	8.02816
29.86243	-11.68918	8.02816
29.86662	-11.68918	8.02816
29.87081	-11.68918	8.02816
29.87507	-11.68918	8.02816
29.87934	-11.68918	8.02816
29.88356	-11.68918	8.02816
29.88775	-11.68918	8.02816
29.89194	-11.66720	8.02816
29.89612	-11.66720	8.02816
29.90031	-11.66720	8.02816
29.90450	-11.66720	8.02816
29.90880	-11.66720	8.02816
29.91300	-11.66720	8.02816
29.91730	-11.66720	8.02816
29.92148	-11.66720	8.02816
29.92567	-11.66720	8.02816
29.92986	-11.66720	8.02816
29.93404	-11.66720	8.02816
29.93834	-11.64523	8.02816
29.94255	-11.64523	8.02816
29.94674	-11.64523	8.02816
29.95093	-11.64523	8.02816
29.95512	-11.64523	8.02816
29.95931	-11.64523	8.02816
29.96350	-11.64523	8.02816
29.96780	-11.64523	8.02816
29.97203	-11.62326	8.02816
29.97622	-11.62326	8.02816
29.98041	-11.62326	8.02816
29.98460	-11.62326	8.02816
29.98880	-11.62326	8.02816
29.99299	-11.62326	8.02816
29.99724	-11.60129	8.02816
