Time (s)   roll (deg)   Delta
0.00041	3.49393	11.27051
0.00465	3.49393	11.27051
0.00885	3.49393	11.27051
0.01304	3.49393	11.27051
0.01723	3.49393	11.27051
0.02141	3.49393	11.27051
0.02559	3.49393	11.27051
0.02992	3.49393	11.27051
0.03416	3.49393	11.27051
0.03833	3.49393	11.27051
0.04250	3.49393	11.27051
0.04666	3.47196	11.27051
0.05082	3.47196	11.27051
0.05499	3.47196	11.27051
0.05924	3.47196	11.27051
0.06351	3.47196	11.27051
0.06768	3.47196	11.27051
0.07185	3.44998	11.27051
0.07601	3.44998	11.27051
0.08018	3.44998	11.27051
0.08434	3.44998	11.27051
0.08850	3.42801	11.27051
0.09285	3.42801	11.27051
0.09704	3.40604	11.27051
0.10129	3.40604	11.27051
0.10546	3.38407	11.27051
0.10962	3.38407	11.27051
0.11378	3.36209	11.27051
0.11795	3.34012	11.27051
0.12219	3.31815	11.27051
0.12645	3.29618	11.27051
0.13065	3.27420	11.27051
0.13484	3.27420	11.27051
0.13903	3.27420	11.27051
0.14322	3.23026	11.27051
0.14741	3.20828	11.27051
0.15159	3.18631	11.27051
0.15589	3.14237	11.27051
0.16009	3.12039	11.27051
0.16427	3.12039	11.27051
0.16846	3.07645	11.27051
0.17264	3.05448	11.27051
0.17683	3.01053	11.27051
0.18101	2.96659	11.27051
0.18526	2.94461	11.27051
0.18955	2.94461	11.27051
0.19374	2.90067	11.27051
0.19792	2.85672	11.27051
0.20221	2.81278	11.27051
0.20639	2.76883	11.27051
0.21057	2.72489	11.27051
0.21476	2.72489	11.27051
0.21906	2.65897	11.27051
0.22327	2.63700	11.27051
0.22746	2.57108	11.27051
0.23164	2.50516	11.27051
0.23584	2.43924	11.27051
0.24006	2.39530	11.27051
0.24428	2.39530	11.27051
0.24872	2.32938	11.27051
0.25297	2.26346	11.27051
0.25716	2.19754	11.27051
0.26135	2.13162	11.27051
0.26553	2.08768	11.27051
0.26971	1.99979	11.27051
0.27390	1.99979	11.27051
0.27815	1.93387	11.27051
0.28244	1.86795	11.27051
0.28663	1.78006	11.27051
0.29082	1.69217	11.27051
0.29500	1.69217	11.27051
0.29919	1.62625	11.27051
0.30348	1.53836	11.27051
0.30766	1.45047	11.27051
0.31196	1.36258	11.27051
0.31616	1.27469	11.27051
0.32034	1.27469	11.27051
0.32453	1.18680	11.27051
0.32871	1.07694	11.27051
0.33291	0.98905	11.27051
0.33709	0.90116	11.27051
0.34134	0.81327	11.27051
0.34561	0.81327	11.27051
0.34980	0.70340	11.27051
0.35399	0.61551	11.27051
0.35817	0.52762	11.27051
0.36236	0.41776	11.27051
0.36654	0.30789	11.27051
0.37072	0.30789	11.27051
0.37504	0.19803	11.27051
0.37925	0.08817	11.27051
0.38344	0.00028	11.27051
0.38762	-0.13156	11.27051
0.39181	-0.21945	11.27051
0.39599	-0.32931	11.27051
0.40017	-0.32931	11.27051
0.40455	-0.43918	11.27051
0.40881	-0.54904	11.27051
0.41299	-0.68088	11.27051
0.41718	-0.79074	11.27051
0.42136	-0.92257	11.27051
0.42555	-0.92257	11.27051
0.42973	-1.03244	11.27051
0.43392	-1.16427	11.27051
0.43821	-1.25216	11.27051
0.44241	-1.38400	11.27051
0.44659	-1.51584	11.27051
0.45078	-1.51584	11.27051
0.45496	-1.64767	11.27051
0.45915	-1.77951	11.27051
0.46333	-1.91134	11.27051
0.46758	-2.04318	11.27051
0.47185	-2.17502	11.27051
0.47604	-2.28488	11.27051
0.48023	-2.28488	11.27051
0.48441	-2.41672	11.27051
0.48859	-2.54855	11.27051
0.49277	-2.70236	11.27051
0.49696	-2.83420	11.27051
0.50125	-2.96603	11.27051
0.50556	-2.96603	11.27051
0.50975	-3.11984	11.27051
0.51393	-3.27365	11.27051
0.51811	-3.40548	11.27051
0.52230	-3.51535	11.27051
0.52648	-3.66916	11.27051
0.53092	-3.82297	11.27051
0.53515	-3.82297	11.27051
0.53934	-3.95480	11.27051
0.54353	-4.10861	11.27051
0.54771	-4.26242	11.27051
0.55189	-4.41623	11.27051
0.55608	-4.41623	11.27051
0.56035	-4.57004	11.27051
0.56462	-4.72384	11.27051
0.56882	-4.87765	11.27051
0.57303	-5.03146	11.27051
0.57722	-5.18527	11.27051
0.58141	-5.18527	11.27051
0.58560	-5.33908	11.27051
0.58978	-5.49289	11.27051
0.59413	-5.66867	11.27051
0.59834	-5.82248	11.27051
0.60253	-5.97629	11.27051
0.60685	-6.10812	11.27051
0.61104	-6.10812	11.27051
0.61523	-6.26193	11.27051
0.61941	-6.41574	11.27051
0.62396	-6.59152	11.27051
0.62819	-6.74533	11.27051
0.63239	-6.89914	11.27051
0.63658	-6.89914	11.27051
0.64078	-7.07492	11.27051
0.64496	-7.22873	11.27051
0.64915	-7.36056	11.27051
0.65341	-7.53634	11.27051
0.65768	-7.71213	11.27051
0.66188	-7.86593	11.27051
0.66607	-7.86593	11.27051
0.67025	-8.01974	11.27051
0.67446	-8.19552	11.27051
0.67866	-8.37131	11.27051
0.68285	-8.54709	11.27051
0.68722	-8.54709	11.27051
0.69144	-8.70089	11.27051
0.69564	-8.83273	11.27051
0.69983	-9.00851	11.27051
0.70402	-9.18429	11.27051
0.70833	-9.33810	11.27051
0.71251	-9.51388	11.27051
0.71701	-9.68966	11.27051
0.72125	-9.68966	11.27051
0.72546	-9.84347	11.27051
0.72966	-10.01925	11.27051
0.73385	-10.15109	11.27051
0.73804	-10.32687	11.27051
0.74224	-10.48068	11.27051
0.74651	-10.48068	11.27051
0.75080	-10.65646	11.27051
0.75501	-10.83224	11.27051
0.75922	-10.98605	11.27051
0.76341	-11.16183	11.27051
0.76760	-11.33761	11.27051
0.77179	-11.33761	11.27051
0.77598	-11.49142	11.27051
0.78029	-11.64523	11.27051
0.78449	-11.79904	11.27051
0.78869	-11.95285	11.27051
0.79288	-12.10666	11.27051
0.79707	-12.28244	11.27051
0.80125	-12.28244	11.27051
0.80544	-12.45822	11.27051
0.80999	-12.61203	11.27051
0.81418	-12.78781	11.27051
0.81837	-12.94162	11.27051
0.82255	-12.94162	11.27051
0.82674	-13.11740	11.27051
0.83093	-13.27121	11.27051
0.83514	-13.44699	11.27051
0.83940	-13.60080	11.27051
0.84368	-13.75461	11.27051
0.84787	-13.75461	11.27051
0.85206	-13.93039	11.27051
0.85625	-14.10617	11.27051
0.86043	-14.23800	11.27051
0.86461	-14.39181	11.27051
0.86880	-14.52365	11.27051
0.87309	-14.69943	11.27051
0.87730	-14.69943	11.27051
0.88148	-14.85324	11.27051
0.88566	-15.00705	11.27051
0.88985	-15.18283	11.27051
0.89403	-15.33664	11.27051
0.89821	-15.33664	11.27051
0.90246	-15.60031	11.27051
0.90672	-15.60031	11.27051
0.91102	-15.77609	11.27051
0.91521	-15.92990	11.27051
0.91939	-16.08371	11.27051
0.92358	-16.21554	11.27051
0.92776	-16.21554	11.27051
0.93194	-16.36935	11.27051
0.93624	-16.54513	11.27051
0.94044	-16.67697	11.27051
0.94463	-16.83078	11.27051
0.94882	-16.96261	11.27051
0.95300	-17.09445	11.27051
0.95718	-17.09445	11.27051
0.96136	-17.24826	11.27051
0.96561	-17.38009	11.27051
0.96987	-17.53390	11.27051
0.97407	-17.68771	11.27051
0.97825	-17.68771	11.27051
0.98243	-17.81955	11.27051
0.98662	-17.97336	11.27051
0.99080	-18.08322	11.27051
0.99499	-18.21506	11.27051
0.99930	-18.36886	11.27051
1.00350	-18.50070	11.27051
1.00768	-18.50070	11.27051
1.01197	-18.63254	11.27051
1.01616	-18.76437	11.27051
1.02034	-18.91818	11.27051
1.02452	-19.05002	11.27051
1.02896	-19.18185	11.27051
1.03317	-19.26974	11.27051
1.03737	-19.26974	11.27051
1.04160	-19.40158	11.27051
1.04579	-19.55539	11.27051
1.04998	-19.66525	11.27051
1.05416	-19.79709	11.27051
1.05841	-19.92892	11.27051
1.06270	-19.92892	11.27051
1.06690	-20.03879	11.27051
1.07110	-20.17062	11.27051
1.07525	-20.30246	11.27051
1.07944	-20.41232	11.27051
1.08363	-20.41232	11.27051
1.08782	-20.52218	11.27051
1.09212	-20.65402	11.27051
1.09632	-20.74191	11.27051
1.10051	-20.87375	11.27051
1.10470	-20.96164	11.27051
1.10889	-20.96164	11.27051
1.11319	-21.07150	11.27051
1.11738	-21.15939	11.27051
1.12164	-21.22531	11.27051
1.12589	-21.31320	11.27051
1.13009	-21.40109	11.27051
1.13428	-21.46701	11.27051
1.13846	-21.46701	11.27051
1.14265	-21.51095	11.27051
1.14684	-21.55490	11.27051
1.15103	-21.62082	11.27051
1.15533	-21.64279	11.27051
1.15953	-21.66476	11.27051
1.16371	-21.66476	11.27051
1.16789	-21.66476	11.27051
1.17208	-21.66476	11.27051
1.17626	-21.66476	11.27051
1.18044	-21.64279	11.27051
1.18485	-21.64279	11.27051
1.18912	-21.64279	11.27051
1.19332	-21.59884	11.27051
1.19751	-21.55490	11.27051
1.20170	-21.51095	11.27051
1.20589	-21.46701	11.27051
1.21008	-21.40109	11.27051
1.21451	-21.33517	11.27051
1.21881	-21.33517	11.27051
1.22301	-21.26925	11.27051
1.22721	-21.20334	11.27051
1.23140	-21.11545	11.27051
1.23559	-21.02756	11.27051
1.23978	-20.93966	11.27051
1.24397	-20.89572	11.27051
1.24832	-20.89572	11.27051
1.25253	-20.78586	11.27051
1.25673	-20.69797	11.27051
1.26092	-20.61007	11.27051
1.26511	-20.50021	11.27051
1.26930	-20.43429	11.27051
1.27349	-20.43429	11.27051
1.27790	-20.32443	11.27051
1.28210	-20.23654	11.27051
1.28629	-20.12668	11.27051
1.29047	-20.06076	11.27051
1.29465	-19.95089	11.27051
1.29884	-19.86300	11.27051
1.30302	-19.86300	11.27051
1.30728	-19.77511	11.27051
1.31155	-19.66525	11.27051
1.31585	-19.57736	11.27051
1.32003	-19.46750	11.27051
1.32422	-19.46750	11.27051
1.32840	-19.35763	11.27051
1.33259	-19.24777	11.27051
1.33677	-19.15988	11.27051
1.34107	-19.05002	11.27051
1.34528	-18.94015	11.27051
1.34946	-18.94015	11.27051
1.35365	-18.85226	11.27051
1.35783	-18.74240	11.27051
1.36202	-18.63254	11.27051
1.36620	-18.52267	11.27051
1.37045	-18.43478	11.27051
1.37472	-18.34689	11.27051
1.37891	-18.34689	11.27051
1.38310	-18.23703	11.27051
1.38725	-18.12716	11.27051
1.39144	-18.03927	11.27051
1.39562	-17.92941	11.27051
1.39981	-17.92941	11.27051
1.40411	-17.81955	11.27051
1.40831	-17.70968	11.27051
1.41250	-17.59982	11.27051
1.41678	-17.51193	11.27051
1.42097	-17.40207	11.27051
1.42515	-17.29220	11.27051
1.42934	-17.29220	11.27051
1.43375	-17.20431	11.27051
1.43797	-17.09445	11.27051
1.44217	-16.98459	11.27051
1.44636	-16.87472	11.27051
1.45055	-16.76486	11.27051
1.45474	-16.76486	11.27051
1.45893	-16.65500	11.27051
1.46320	-16.56711	11.27051
1.46750	-16.45724	11.27051
1.47172	-16.34738	11.27051
1.47592	-16.23752	11.27051
1.48011	-16.12765	11.27051
1.48430	-16.12765	11.27051
1.48849	-16.01779	11.27051
1.49268	-15.90793	11.27051
1.49699	-15.79806	11.27051
1.50120	-15.73214	11.27051
1.50539	-15.60031	11.27051
1.50958	-15.60031	11.27051
1.51377	-15.51242	11.27051
1.51807	-15.40256	11.27051
1.52226	-15.29269	11.27051
1.52670	-15.18283	11.27051
1.53091	-15.07297	11.27051
1.53510	-15.07297	11.27051
1.53926	-14.96310	11.27051
1.54345	-14.85324	11.27051
1.54763	-14.76535	11.27051
1.55182	-14.67746	11.27051
1.55607	-14.54562	11.27051
1.56033	-14.43576	11.27051
1.56453	-14.43576	11.27051
1.56871	-14.34787	11.27051
1.57290	-14.23800	11.27051
1.57708	-14.12814	11.27051
1.58127	-14.01828	11.27051
1.58545	-14.01828	11.27051
1.58975	-13.93039	11.27051
1.59395	-13.79855	11.27051
1.59813	-13.71066	11.27051
1.60231	-13.60080	11.27051
1.60650	-13.49093	11.27051
1.61068	-13.49093	11.27051
1.61487	-13.40304	11.27051
1.61925	-13.29318	11.27051
1.62350	-13.18332	11.27051
1.62768	-13.09543	11.27051
1.63187	-13.00754	11.27051
1.63605	-12.91964	11.27051
1.64023	-12.91964	11.27051
1.64443	-12.80978	11.27051
1.64861	-12.72189	11.27051
1.65291	-12.61203	11.27051
1.65711	-12.50216	11.27051
1.66130	-12.50216	11.27051
1.66548	-12.41427	11.27051
1.66966	-12.32638	11.27051
1.67384	-12.23849	11.27051
1.67803	-12.15060	11.27051
1.68228	-12.04074	11.27051
1.68654	-11.95285	11.27051
1.69077	-11.95285	11.27051
1.69497	-11.86496	11.27051
1.69917	-11.75509	11.27051
1.70335	-11.68918	11.27051
1.70753	-11.57931	11.27051
1.71172	-11.49142	11.27051
1.71606	-11.42550	11.27051
1.72038	-11.42550	11.27051
1.72458	-11.33761	11.27051
1.72877	-11.24972	11.27051
1.73296	-11.16183	11.27051
1.73715	-11.07394	11.27051
1.74134	-10.98605	11.27051
1.74604	-10.98605	11.27051
1.75026	-10.89816	11.27051
1.75448	-10.81027	11.27051
1.75867	-10.74435	11.27051
1.76286	-10.65646	11.27051
1.76704	-10.56857	11.27051
1.77124	-10.50265	11.27051
1.77549	-10.50265	11.27051
1.77981	-10.41476	11.27051
1.78401	-10.32687	11.27051
1.78822	-10.26095	11.27051
1.79241	-10.17306	11.27051
1.79660	-10.10714	11.27051
1.80078	-10.04123	11.27051
1.80496	-10.04123	11.27051
1.80930	-9.97531	11.27051
1.81351	-9.88742	11.27051
1.81771	-9.82150	11.27051
1.82204	-9.73361	11.27051
1.82623	-9.66769	11.27051
1.83041	-9.66769	11.27051
1.83459	-9.60177	11.27051
1.83916	-9.53586	11.27051
1.84338	-9.46994	11.27051
1.84758	-9.40402	11.27051
1.85176	-9.40402	11.27051
1.85595	-9.33810	11.27051
1.86014	-9.27218	11.27051
1.86433	-9.20627	11.27051
1.86858	-9.14035	11.27051
1.87285	-9.07443	11.27051
1.87704	-9.07443	11.27051
1.88123	-9.00851	11.27051
1.88541	-8.94259	11.27051
1.88962	-8.89865	11.27051
1.89381	-8.85470	11.27051
1.89800	-8.78879	11.27051
1.90230	-8.72287	11.27051
1.90652	-8.72287	11.27051
1.91071	-8.67892	11.27051
1.91490	-8.61300	11.27051
1.91908	-8.56906	11.27051
1.92336	-8.52511	11.27051
1.92754	-8.48117	11.27051
1.93198	-8.43722	11.27051
1.93619	-8.43722	11.27051
1.94038	-8.37131	11.27051
1.94456	-8.32736	11.27051
1.94875	-8.28341	11.27051
1.95293	-8.23947	11.27051
1.95713	-8.23947	11.27051
1.96138	-8.19552	11.27051
1.96567	-8.15158	11.27051
1.96986	-8.10763	11.27051
1.97405	-8.08566	11.27051
1.97824	-8.04172	11.27051
1.98242	-7.99777	11.27051
1.98663	-7.99777	11.27051
1.99082	-7.97580	11.27051
1.99515	-7.95382	11.27051
1.99935	-7.90988	11.27051
2.00354	-7.86593	11.27051
2.00773	-7.84396	11.27051
2.01192	-7.82199	11.27051
2.01610	-7.82199	11.27051
2.02029	-7.77804	11.27051
2.02465	-7.75607	11.27051
2.02892	-7.73410	11.27051
2.03312	-7.71213	11.27051
2.03731	-7.69015	11.27051
2.04152	-7.69015	11.27051
2.04572	-7.66818	11.27051
2.04991	-7.64621	11.27051
2.05410	-7.62423	11.27051
2.05840	-7.60226	11.27051
2.06261	-7.58029	11.27051
2.06679	-7.58029	11.27051
2.07099	-7.55832	11.27051
2.07519	-7.55832	11.27051
2.07938	-7.53634	11.27051
2.08356	-7.51437	11.27051
2.08802	-7.51437	11.27051
2.09223	-7.51437	11.27051
2.09644	-7.49240	11.27051
2.10064	-7.49240	11.27051
2.10483	-7.47043	11.27051
2.10903	-7.47043	11.27051
2.11322	-7.47043	11.27051
2.11748	-7.47043	11.27051
2.12176	-7.47043	11.27051
2.12606	-7.47043	11.27051
2.13025	-7.47043	11.27051
2.13443	-7.44845	11.27051
2.13862	-7.47043	11.27051
2.14280	-7.44845	11.27051
2.14699	-7.44845	11.27051
2.15130	-7.44845	11.27051
2.15550	-7.44845	11.27051
2.15969	-7.47043	11.27051
2.16387	-7.47043	11.27051
2.16806	-7.47043	11.27051
2.17224	-7.47043	11.27051
2.17642	-7.47043	11.27051
2.18067	-7.47043	11.27051
2.18493	-7.49240	11.27051
2.18916	-7.49240	11.27051
2.19336	-7.51437	11.27051
2.19755	-7.51437	11.27051
2.20173	-7.53634	11.27051
2.20592	-7.53634	11.27051
2.21010	-7.55832	11.27051
2.21441	-7.55832	11.27051
2.21860	-7.58029	11.27051
2.22279	-7.58029	11.27051
2.22708	-7.60226	11.27051
2.23125	-7.62423	11.27051
2.23543	-7.62423	11.27051
2.23962	-7.64621	11.27051
2.24405	-7.69015	11.27051
2.24827	-7.69015	11.27051
2.25246	-7.69015	11.27051
2.25665	-7.71213	11.27051
2.26084	-7.75607	11.27051
2.26502	-7.77804	11.27051
2.26921	-7.80002	11.27051
2.27346	-7.82199	11.27051
2.27774	-7.82199	11.27051
2.28194	-7.84396	11.27051
2.28612	-7.86593	11.27051
2.29033	-7.90988	11.27051
2.29452	-7.93185	11.27051
2.29871	-7.95382	11.27051
2.30289	-7.95382	11.27051
2.30721	-7.99777	11.27051
2.31142	-8.01974	11.27051
2.31561	-8.06369	11.27051
2.31979	-8.08566	11.27051
2.32398	-8.12961	11.27051
2.32827	-8.15158	11.27051
2.33245	-8.15158	11.27051
2.33670	-8.19552	11.27051
2.34098	-8.23947	11.27051
2.34517	-8.28341	11.27051
2.34936	-8.32736	11.27051
2.35356	-8.32736	11.27051
2.35774	-8.34933	11.27051
2.36193	-8.39328	11.27051
2.36611	-8.43722	11.27051
2.37041	-8.48117	11.27051
2.37461	-8.52511	11.27051
2.37880	-8.52511	11.27051
2.38299	-8.56906	11.27051
2.38720	-8.61300	11.27051
2.39139	-8.65695	11.27051
2.39557	-8.72287	11.27051
2.40000	-8.74484	11.27051
2.40421	-8.78879	11.27051
2.40839	-8.78879	11.27051
2.41259	-8.85470	11.27051
2.41678	-8.89865	11.27051
2.42097	-8.94259	11.27051
2.42516	-8.98654	11.27051
2.42954	-9.05246	11.27051
2.43383	-9.05246	11.27051
2.43802	-9.11838	11.27051
2.44223	-9.14035	11.27051
2.44642	-9.20627	11.27051
2.45060	-9.25021	11.27051
2.45479	-9.31613	11.27051
2.45897	-9.31613	11.27051
2.46329	-9.38205	11.27051
2.46748	-9.42599	11.27051
2.47167	-9.49191	11.27051
2.47586	-9.55783	11.27051
2.48004	-9.62375	11.27051
2.48423	-9.66769	11.27051
2.48843	-9.66769	11.27051
2.49291	-9.71164	11.27051
2.49712	-9.77756	11.27051
2.50130	-9.84347	11.27051
2.50549	-9.90939	11.27051
2.50968	-9.97531	11.27051
2.51386	-9.97531	11.27051
2.51805	-10.04123	11.27051
2.52229	-10.10714	11.27051
2.52659	-10.15109	11.27051
2.53090	-10.21701	11.27051
2.53509	-10.28293	11.27051
2.53926	-10.34884	11.27051
2.54346	-10.34884	11.27051
2.54766	-10.43673	11.27051
2.55184	-10.50265	11.27051
2.55615	-10.56857	11.27051
2.56035	-10.63449	11.27051
2.56454	-10.72238	11.27051
2.56872	-10.76632	11.27051
2.57291	-10.76632	11.27051
2.57710	-10.83224	11.27051
2.58128	-10.89816	11.27051
2.58554	-10.96408	11.27051
2.58983	-11.05197	11.27051
2.59404	-11.05197	11.27051
2.59823	-11.11789	11.27051
2.60242	-11.20578	11.27051
2.60661	-11.27170	11.27051
2.61080	-11.33761	11.27051
2.61498	-11.42550	11.27051
2.61931	-11.42550	11.27051
2.62351	-11.49142	11.27051
2.62770	-11.55734	11.27051
2.63198	-11.64523	11.27051
2.63617	-11.71115	11.27051
2.64035	-11.77707	11.27051
2.64453	-11.77707	11.27051
2.64893	-11.86496	11.27051
2.65314	-11.93088	11.27051
2.65733	-11.99679	11.27051
2.66151	-12.08468	11.27051
2.66569	-12.15060	11.27051
2.66987	-12.15060	11.27051
2.67406	-12.23849	11.27051
2.67830	-12.30441	11.27051
2.68259	-12.39230	11.27051
2.68678	-12.45822	11.27051
2.69098	-12.52414	11.27051
2.69519	-12.61203	11.27051
2.69937	-12.61203	11.27051
2.70356	-12.67795	11.27051
2.70774	-12.74386	11.27051
2.71204	-12.83175	11.27051
2.71625	-12.89767	11.27051
2.72044	-12.98556	11.27051
2.72464	-12.98556	11.27051
2.72882	-13.05148	11.27051
2.73311	-13.13937	11.27051
2.73731	-13.20529	11.27051
2.74157	-13.27121	11.27051
2.74584	-13.33713	11.27051
2.75004	-13.42502	11.27051
2.75423	-13.42502	11.27051
2.75842	-13.49093	11.27051
2.76260	-13.57882	11.27051
2.76678	-13.64474	11.27051
2.77097	-13.71066	11.27051
2.77528	-13.71066	11.27051
2.77948	-13.79855	11.27051
2.78367	-13.86447	11.27051
2.78787	-13.93039	11.27051
2.79207	-14.01828	11.27051
2.79626	-14.08420	11.27051
2.80045	-14.17209	11.27051
2.80492	-14.17209	11.27051
2.80912	-14.23800	11.27051
2.81331	-14.30392	11.27051
2.81750	-14.39181	11.27051
2.82168	-14.45773	11.27051
2.82587	-14.52365	11.27051
2.83005	-14.58957	11.27051
2.83444	-14.58957	11.27051
2.83872	-14.65548	11.27051
2.84292	-14.74338	11.27051
2.84710	-14.80929	11.27051
2.85125	-14.87521	11.27051
2.85544	-14.94113	11.27051
2.85962	-14.94113	11.27051
2.86381	-15.02902	11.27051
2.86810	-15.09494	11.27051
2.87231	-15.16086	11.27051
2.87649	-15.22677	11.27051
2.88068	-15.22677	11.27051
2.88486	-15.29269	11.27051
2.88906	-15.38058	11.27051
2.89326	-15.44650	11.27051
2.89752	-15.51242	11.27051
2.90180	-15.57834	11.27051
2.90600	-15.57834	11.27051
2.91019	-15.64425	11.27051
2.91437	-15.71017	11.27051
2.91856	-15.77609	11.27051
2.92274	-15.84201	11.27051
2.92693	-15.88595	11.27051
2.93124	-15.95187	11.27051
2.93555	-15.95187	11.27051
2.93974	-16.03976	11.27051
2.94392	-16.10568	11.27051
2.94810	-16.17160	11.27051
2.95229	-16.21554	11.27051
2.95647	-16.28146	11.27051
2.96092	-16.34738	11.27051
2.96513	-16.34738	11.27051
2.96931	-16.41330	11.27051
2.97350	-16.45724	11.27051
2.97769	-16.52316	11.27051
2.98187	-16.58908	11.27051
2.98605	-16.58908	11.27051
2.99035	-16.65500	11.27051
2.99465	-16.72091	11.27051
2.99885	-16.74289	11.27051
3.00304	-16.80881	11.27051
3.00723	-16.87472	11.27051
3.01142	-16.91867	11.27051
3.01560	-16.91867	11.27051
3.01978	-16.98459	11.27051
3.02409	-17.05050	11.27051
3.02829	-17.11642	11.27051
3.03247	-17.16037	11.27051
3.03676	-17.20431	11.27051
3.04095	-17.27023	11.27051
3.04515	-17.27023	11.27051
3.04935	-17.31418	11.27051
3.05360	-17.38009	11.27051
3.05789	-17.42404	11.27051
3.06209	-17.48996	11.27051
3.06628	-17.48996	11.27051
3.07046	-17.53390	11.27051
3.07465	-17.57785	11.27051
3.07883	-17.64377	11.27051
3.08302	-17.68771	11.27051
3.08733	-17.73166	11.27051
3.09154	-17.77560	11.27051
3.09575	-17.77560	11.27051
3.09994	-17.81955	11.27051
3.10413	-17.86349	11.27051
3.10832	-17.92941	11.27051
3.11250	-17.97336	11.27051
3.11695	-18.01730	11.27051
3.12116	-18.01730	11.27051
3.12535	-18.06125	11.27051
3.12953	-18.10519	11.27051
3.13372	-18.14914	11.27051
3.13800	-18.19308	11.27051
3.14218	-18.23703	11.27051
3.14644	-18.23703	11.27051
3.15071	-18.28097	11.27051
3.15491	-18.32492	11.27051
3.15911	-18.36886	11.27051
3.16330	-18.41281	11.27051
3.16748	-18.43478	11.27051
3.17166	-18.43478	11.27051
3.17585	-18.47873	11.27051
3.18014	-18.52267	11.27051
3.18435	-18.56662	11.27051
3.18856	-18.58859	11.27051
3.19276	-18.63254	11.27051
3.19695	-18.63254	11.27051
3.20113	-18.65451	11.27051
3.20531	-18.69845	11.27051
3.20975	-18.72043	11.27051
3.21396	-18.74240	11.27051
3.21816	-18.78634	11.27051
3.22234	-18.83029	11.27051
3.22653	-18.83029	11.27051
3.23071	-18.85226	11.27051
3.23490	-18.87423	11.27051
3.23931	-18.89621	11.27051
3.24359	-18.94015	11.27051
3.24779	-18.96213	11.27051
3.25198	-18.98410	11.27051
3.25616	-18.98410	11.27051
3.26034	-19.00607	11.27051
3.26453	-19.02804	11.27051
3.26871	-19.05002	11.27051
3.27301	-19.09396	11.27051
3.27721	-19.09396	11.27051
3.28140	-19.11593	11.27051
3.28558	-19.13791	11.27051
3.28978	-19.15988	11.27051
3.29398	-19.18185	11.27051
3.29817	-19.18185	11.27051
3.30242	-19.20382	11.27051
3.30669	-19.20382	11.27051
3.31089	-19.22580	11.27051
3.31508	-19.24777	11.27051
3.31925	-19.26974	11.27051
3.32343	-19.26974	11.27051
3.32762	-19.29172	11.27051
3.33180	-19.29172	11.27051
3.33610	-19.31369	11.27051
3.34041	-19.33566	11.27051
3.34459	-19.33566	11.27051
3.34878	-19.35763	11.27051
3.35296	-19.35763	11.27051
3.35714	-19.35763	11.27051
3.36134	-19.37961	11.27051
3.36576	-19.37961	11.27051
3.36996	-19.40158	11.27051
3.37415	-19.40158	11.27051
3.37833	-19.40158	11.27051
3.38252	-19.40158	11.27051
3.38670	-19.42355	11.27051
3.39090	-19.42355	11.27051
3.39518	-19.44552	11.27051
3.39948	-19.44552	11.27051
3.40369	-19.44552	11.27051
3.40787	-19.44552	11.27051
3.41206	-19.44552	11.27051
3.41625	-19.44552	11.27051
3.42044	-19.44552	11.27051
3.42462	-19.44552	11.27051
3.42892	-19.44552	11.27051
3.43313	-19.46750	11.27051
3.43732	-19.46750	11.27051
3.44161	-19.44552	11.27051
3.44580	-19.46750	11.27051
3.44998	-19.44552	11.27051
3.45416	-19.44552	11.27051
3.45842	-19.44552	11.27051
3.46269	-19.44552	11.27051
3.46689	-19.44552	11.27051
3.47108	-19.44552	11.27051
3.47526	-19.44552	11.27051
3.47944	-19.44552	11.27051
3.48363	-19.42355	11.27051
3.48781	-19.42355	11.27051
3.49213	-19.42355	11.27051
3.49634	-19.42355	11.27051
3.50053	-19.40158	11.27051
3.50472	-19.40158	11.27051
3.50890	-19.37961	11.27051
3.51309	-19.37961	11.27051
3.51727	-19.37961	11.27051
3.52170	-19.35763	11.27051
3.52591	-19.35763	11.27051
3.53010	-19.35763	11.27051
3.53428	-19.31369	11.27051
3.53847	-19.33566	11.27051
3.54283	-19.33566	11.27051
3.54702	-19.31369	11.27051
3.55129	-19.29172	11.27051
3.55557	-19.26974	11.27051
3.55977	-19.26974	11.27051
3.56396	-19.24777	11.27051
3.56814	-19.22580	11.27051
3.57233	-19.22580	11.27051
3.57651	-19.20382	11.27051
3.58069	-19.18185	11.27051
3.58499	-19.18185	11.27051
3.58921	-19.15988	11.27051
3.59341	-19.13791	11.27051
3.59760	-19.13791	11.27051
3.60179	-19.11593	11.27051
3.60598	-19.09396	11.27051
3.61016	-19.07199	11.27051
3.61459	-19.05002	11.27051
3.61880	-19.02804	11.27051
3.62299	-19.02804	11.27051
3.62718	-19.00607	11.27051
3.63137	-18.98410	11.27051
3.63556	-18.96213	11.27051
3.63975	-18.94015	11.27051
3.64413	-18.91818	11.27051
3.64841	-18.91818	11.27051
3.65260	-18.89621	11.27051
3.65682	-18.87423	11.27051
3.66101	-18.85226	11.27051
3.66520	-18.80832	11.27051
3.66939	-18.80832	11.27051
3.67357	-18.78634	11.27051
3.67793	-18.76437	11.27051
3.68215	-18.72043	11.27051
3.68634	-18.72043	11.27051
3.69055	-18.67648	11.27051
3.69474	-18.65451	11.27051
3.69894	-18.65451	11.27051
3.70315	-18.63254	11.27051
3.70742	-18.58859	11.27051
3.71171	-18.56662	11.27051
3.71591	-18.52267	11.27051
3.72010	-18.50070	11.27051
3.72429	-18.47873	11.27051
3.72848	-18.47873	11.27051
3.73267	-18.45675	11.27051
3.73686	-18.41281	11.27051
3.74117	-18.39084	11.27051
3.74548	-18.34689	11.27051
3.74967	-18.32492	11.27051
3.75386	-18.32492	11.27051
3.75805	-18.28097	11.27051
3.76223	-18.25900	11.27051
3.76642	-18.23703	11.27051
3.77086	-18.19308	11.27051
3.77506	-18.14914	11.27051
3.77925	-18.12716	11.27051
3.78343	-18.12716	11.27051
3.78762	-18.10519	11.27051
3.79182	-18.06125	11.27051
3.79601	-18.03927	11.27051
3.80026	-17.99533	11.27051
3.80455	-17.97336	11.27051
3.80875	-17.97336	11.27051
3.81293	-17.92941	11.27051
3.81711	-17.90744	11.27051
3.82130	-17.86349	11.27051
3.82548	-17.81955	11.27051
3.82966	-17.77560	11.27051
3.83396	-17.77560	11.27051
3.83817	-17.75363	11.27051
3.84235	-17.70968	11.27051
3.84664	-17.68771	11.27051
3.85082	-17.66574	11.27051
3.85501	-17.62179	11.27051
3.85920	-17.57785	11.27051
3.86345	-17.57785	11.27051
3.86773	-17.55588	11.27051
3.87193	-17.51193	11.27051
3.87612	-17.46798	11.27051
3.88030	-17.44601	11.27051
3.88449	-17.44601	11.27051
3.88867	-17.40207	11.27051
3.89287	-17.35812	11.27051
3.89717	-17.33615	11.27051
3.90139	-17.29220	11.27051
3.90558	-17.27023	11.27051
3.90976	-17.27023	11.27051
3.91395	-17.22629	11.27051
3.91813	-17.18234	11.27051
3.92232	-17.16037	11.27051
3.92657	-17.11642	11.27051
3.93084	-17.07248	11.27051
3.93504	-17.05050	11.27051
3.93924	-17.05050	11.27051
3.94342	-17.00656	11.27051
3.94771	-16.98459	11.27051
3.95190	-16.94064	11.27051
3.95608	-16.89670	11.27051
3.96040	-16.87472	11.27051
3.96460	-16.87472	11.27051
3.96879	-16.83078	11.27051
3.97298	-16.78683	11.27051
3.97716	-16.76486	11.27051
3.98135	-16.72091	11.27051
3.98553	-16.69894	11.27051
3.98981	-16.69894	11.27051
3.99409	-16.65500	11.27051
3.99829	-16.61105	11.27051
4.00247	-16.58908	11.27051
4.00666	-16.52316	11.27051
4.01085	-16.50119	11.27051
4.01503	-16.50119	11.27051
4.01922	-16.47922	11.27051
4.02352	-16.43527	11.27051
4.02772	-16.41330	11.27051
4.03192	-16.36935	11.27051
4.03610	-16.32541	11.27051
4.04029	-16.30343	11.27051
4.04449	-16.30343	11.27051
4.04879	-16.25949	11.27051
4.05327	-16.23752	11.27051
4.05748	-16.19357	11.27051
4.06167	-16.17160	11.27051
4.06586	-16.12765	11.27051
4.07005	-16.08371	11.27051
4.07424	-16.08371	11.27051
4.07842	-16.06173	11.27051
4.08271	-16.01779	11.27051
4.08700	-15.97384	11.27051
4.09123	-15.95187	11.27051
4.09558	-15.92990	11.27051
4.09981	-15.92990	11.27051
4.10400	-15.88595	11.27051
4.10819	-15.84201	11.27051
4.11238	-15.82004	11.27051
4.11669	-15.77609	11.27051
4.12090	-15.75412	11.27051
4.12509	-15.75412	11.27051
4.12928	-15.71017	11.27051
4.13346	-15.68820	11.27051
4.13765	-15.64425	11.27051
4.14183	-15.62228	11.27051
4.14610	-15.57834	11.27051
4.15050	-15.57834	11.27051
4.15470	-15.55636	11.27051
4.15889	-15.53439	11.27051
4.16307	-15.49045	11.27051
4.16725	-15.44650	11.27051
4.17144	-15.42453	11.27051
4.17563	-15.42453	11.27051
4.17993	-15.38058	11.27051
4.18414	-15.35861	11.27051
4.18833	-15.31466	11.27051
4.19252	-15.29269	11.27051
4.19680	-15.27072	11.27051
4.20102	-15.22677	11.27051
4.20523	-15.22677	11.27051
4.20966	-15.20480	11.27051
4.21388	-15.18283	11.27051
4.21807	-15.13888	11.27051
4.22227	-15.11691	11.27051
4.22645	-15.11691	11.27051
4.23064	-15.09494	11.27051
4.23482	-15.07297	11.27051
4.23910	-15.02902	11.27051
4.24337	-15.00705	11.27051
4.24757	-14.96310	11.27051
4.25187	-14.94113	11.27051
4.25607	-14.94113	11.27051
4.26026	-14.91916	11.27051
4.26444	-14.87521	11.27051
4.26863	-14.85324	11.27051
4.27295	-14.80929	11.27051
4.27715	-14.80929	11.27051
4.28134	-14.76535	11.27051
4.28553	-14.76535	11.27051
4.28972	-14.74338	11.27051
4.29391	-14.72140	11.27051
4.29809	-14.69943	11.27051
4.30235	-14.65548	11.27051
4.30662	-14.63351	11.27051
4.31082	-14.63351	11.27051
4.31500	-14.61154	11.27051
4.31920	-14.58957	11.27051
4.32339	-14.54562	11.27051
4.32758	-14.52365	11.27051
4.33177	-14.50168	11.27051
4.33607	-14.50168	11.27051
4.34028	-14.47970	11.27051
4.34447	-14.45773	11.27051
4.34865	-14.43576	11.27051
4.35294	-14.39181	11.27051
4.35713	-14.36984	11.27051
4.36131	-14.34787	11.27051
4.36574	-14.32589	11.27051
4.36997	-14.32589	11.27051
4.37417	-14.30392	11.27051
4.37836	-14.28195	11.27051
4.38254	-14.25998	11.27051
4.38673	-14.21603	11.27051
4.39092	-14.21603	11.27051
4.39519	-14.19406	11.27051
4.39948	-14.19406	11.27051
4.40368	-14.15011	11.27051
4.40787	-14.12814	11.27051
4.41205	-14.10617	11.27051
4.41624	-14.10617	11.27051
4.42042	-14.08420	11.27051
4.42460	-14.06222	11.27051
4.42890	-14.04025	11.27051
4.43311	-14.01828	11.27051
4.43730	-14.01828	11.27051
4.44148	-13.99631	11.27051
4.44567	-13.97433	11.27051
4.44985	-13.97433	11.27051
4.45414	-13.95236	11.27051
4.45839	-13.93039	11.27051
4.46266	-13.90841	11.27051
4.46685	-13.90841	11.27051
4.47104	-13.88644	11.27051
4.47523	-13.86447	11.27051
4.47942	-13.86447	11.27051
4.48360	-13.82052	11.27051
4.48778	-13.82052	11.27051
4.49208	-13.79855	11.27051
4.49628	-13.79855	11.27051
4.50047	-13.77658	11.27051
4.50465	-13.75461	11.27051
4.50884	-13.73263	11.27051
4.51302	-13.73263	11.27051
4.51720	-13.73263	11.27051
4.52146	-13.71066	11.27051
4.52572	-13.68869	11.27051
4.52992	-13.68869	11.27051
4.53410	-13.66672	11.27051
4.53829	-13.64474	11.27051
4.54247	-13.64474	11.27051
4.54666	-13.64474	11.27051
4.55084	-13.62277	11.27051
4.55527	-13.62277	11.27051
4.55947	-13.60080	11.27051
4.56365	-13.57882	11.27051
4.56784	-13.55685	11.27051
4.57202	-13.55685	11.27051
4.57621	-13.55685	11.27051
4.58039	-13.55685	11.27051
4.58485	-13.53488	11.27051
4.58906	-13.53488	11.27051
4.59325	-13.51291	11.27051
4.59743	-13.51291	11.27051
4.60162	-13.51291	11.27051
4.60580	-13.49093	11.27051
4.60998	-13.49093	11.27051
4.61425	-13.49093	11.27051
4.61853	-13.46896	11.27051
4.62274	-13.46896	11.27051
4.62692	-13.46896	11.27051
4.63112	-13.44699	11.27051
4.63530	-13.46896	11.27051
4.63949	-13.44699	11.27051
4.64367	-13.42502	11.27051
4.64798	-13.42502	11.27051
4.65218	-13.42502	11.27051
4.65647	-13.42502	11.27051
4.66065	-13.42502	11.27051
4.66484	-13.40304	11.27051
4.66902	-13.40304	11.27051
4.67320	-13.40304	11.27051
4.67745	-13.40304	11.27051
4.68172	-13.40304	11.27051
4.68591	-13.40304	11.27051
4.69010	-13.38107	11.27051
4.69428	-13.40304	11.27051
4.69847	-13.40304	11.27051
4.70265	-13.38107	11.27051
4.70684	-13.38107	11.27051
4.71116	-13.38107	11.27051
4.71536	-13.38107	11.27051
4.71955	-13.38107	11.27051
4.72374	-13.38107	11.27051
4.72793	-13.38107	11.27051
4.73211	-13.38107	11.27051
4.73629	-13.38107	11.27051
4.74055	-13.38107	11.27051
4.74482	-13.38107	11.27051
4.74901	-13.38107	11.27051
4.75320	-13.38107	11.27051
4.75749	-13.38107	11.27051
4.76167	-13.38107	11.27051
4.76585	-13.40304	11.27051
4.77004	-13.40304	11.27051
4.77434	-13.40304	11.27051
4.77854	-13.40304	11.27051
4.78273	-13.40304	11.27051
4.78691	-13.40304	11.27051
4.79110	-13.40304	11.27051
4.79525	-13.40304	11.27051
4.79943	-13.40304	11.27051
4.80368	-13.42502	11.27051
4.80796	-13.42502	11.27051
4.81215	-13.42502	11.27051
4.81634	-13.44699	11.27051
4.82053	-13.44699	11.27051
4.82471	-13.44699	11.27051
4.82890	-13.46896	11.27051
4.83308	-13.46896	11.27051
4.83738	-13.46896	11.27051
4.84158	-13.46896	11.27051
4.84577	-13.46896	11.27051
4.84995	-13.49093	11.27051
4.85414	-13.51291	11.27051
4.85843	-13.51291	11.27051
4.86261	-13.51291	11.27051
4.86705	-13.51291	11.27051
4.87127	-13.53488	11.27051
4.87545	-13.53488	11.27051
4.87964	-13.55685	11.27051
4.88382	-13.57882	11.27051
4.88800	-13.57882	11.27051
4.89219	-13.57882	11.27051
4.89645	-13.60080	11.27051
4.90073	-13.60080	11.27051
4.90494	-13.62277	11.27051
4.90913	-13.62277	11.27051
4.91331	-13.62277	11.27051
4.91749	-13.64474	11.27051
4.92168	-13.66672	11.27051
4.92586	-13.66672	11.27051
4.93016	-13.68869	11.27051
4.93437	-13.71066	11.27051
4.93856	-13.71066	11.27051
4.94274	-13.71066	11.27051
4.94693	-13.73263	11.27051
4.95112	-13.75461	11.27051
4.95531	-13.77658	11.27051
4.95967	-13.77658	11.27051
4.96394	-13.79855	11.27051
4.96814	-13.79855	11.27051
4.97234	-13.82052	11.27051
4.97653	-13.84250	11.27051
4.98072	-13.86447	11.27051
4.98490	-13.86447	11.27051
4.98909	-13.86447	11.27051
4.99339	-13.88644	11.27051
4.99760	-13.90841	11.27051
5.00178	-13.90841	11.27051
5.00597	-13.93039	11.27051
5.01015	-13.97433	11.27051
5.01434	-13.97433	11.27051
5.01852	-13.97433	11.27051
5.02277	-13.99631	11.27051
5.02705	-14.01828	11.27051
5.03126	-14.04025	11.27051
5.03545	-14.06222	11.27051
5.03964	-14.06222	11.27051
5.04384	-14.08420	11.27051
5.04805	-14.08420	11.27051
5.05224	-14.10617	11.27051
5.05657	-14.12814	11.27051
5.06088	-14.15011	11.27051
5.06507	-14.17209	11.27051
5.06925	-14.17209	11.27051
5.07344	-14.17209	11.27051
5.07763	-14.21603	11.27051
5.08182	-14.23800	11.27051
5.08630	-14.25998	11.27051
5.09052	-14.28195	11.27051
5.09471	-14.30392	11.27051
5.09893	-14.30392	11.27051
5.10315	-14.30392	11.27051
5.10734	-14.32589	11.27051
5.11153	-14.36984	11.27051
5.11581	-14.39181	11.27051
5.12008	-14.39181	11.27051
5.12428	-14.39181	11.27051
5.12847	-14.41379	11.27051
5.13265	-14.43576	11.27051
5.13684	-14.45773	11.27051
5.14102	-14.47970	11.27051
5.14521	-14.50168	11.27051
5.14951	-14.52365	11.27051
5.15373	-14.52365	11.27051
5.15791	-14.54562	11.27051
5.16220	-14.58957	11.27051
5.16639	-14.58957	11.27051
5.17057	-14.63351	11.27051
5.17476	-14.63351	11.27051
5.17922	-14.65548	11.27051
5.18343	-14.67746	11.27051
5.18762	-14.69943	11.27051
5.19181	-14.72140	11.27051
5.19600	-14.74338	11.27051
5.20018	-14.74338	11.27051
5.20437	-14.76535	11.27051
5.20863	-14.78732	11.27051
5.21294	-14.80929	11.27051
5.21714	-14.83127	11.27051
5.22133	-14.85324	11.27051
5.22552	-14.87521	11.27051
5.22971	-14.87521	11.27051
5.23389	-14.89718	11.27051
5.23807	-14.91916	11.27051
5.24238	-14.94113	11.27051
5.24658	-14.96310	11.27051
5.25077	-14.98507	11.27051
5.25497	-15.00705	11.27051
5.25917	-15.00705	11.27051
5.26346	-15.02902	11.27051
5.26764	-15.07297	11.27051
5.27190	-15.07297	11.27051
5.27618	-15.11691	11.27051
5.28037	-15.13888	11.27051
5.28456	-15.13888	11.27051
5.28875	-15.16086	11.27051
5.29293	-15.18283	11.27051
5.29712	-15.20480	11.27051
5.30130	-15.22677	11.27051
5.30560	-15.24875	11.27051
5.30981	-15.24875	11.27051
5.31399	-15.27072	11.27051
5.31817	-15.29269	11.27051
5.32236	-15.31466	11.27051
5.32655	-15.35861	11.27051
5.33073	-15.35861	11.27051
5.33499	-15.35861	11.27051
5.33927	-15.40256	11.27051
5.34347	-15.40256	11.27051
5.34765	-15.42453	11.27051
5.35183	-15.44650	11.27051
5.35602	-15.46847	11.27051
5.36020	-15.46847	11.27051
5.36449	-15.51242	11.27051
5.36879	-15.51242	11.27051
5.37300	-15.55636	11.27051
5.37719	-15.55636	11.27051
5.38138	-15.57834	11.27051
5.38557	-15.60031	11.27051
5.38975	-15.60031	11.27051
5.39393	-15.62228	11.27051
5.39838	-15.64425	11.27051
5.40259	-15.66623	11.27051
5.40678	-15.68820	11.27051
5.41096	-15.71017	11.27051
5.41516	-15.71017	11.27051
5.41935	-15.73214	11.27051
5.42353	-15.75412	11.27051
5.42780	-15.77609	11.27051
5.43209	-15.79806	11.27051
5.43630	-15.82004	11.27051
5.44049	-15.82004	11.27051
5.44467	-15.84201	11.27051
5.44885	-15.86398	11.27051
5.45304	-15.88595	11.27051
5.45722	-15.90793	11.27051
5.46152	-15.90793	11.27051
5.46583	-15.90793	11.27051
5.47001	-15.92990	11.27051
5.47420	-15.95187	11.27051
5.47838	-15.97384	11.27051
5.48257	-15.99582	11.27051
5.48675	-16.01779	11.27051
5.49101	-16.01779	11.27051
5.49529	-16.01779	11.27051
5.49948	-16.03976	11.27051
5.50367	-16.06173	11.27051
5.50785	-16.08371	11.27051
5.51203	-16.08371	11.27051
5.51622	-16.10568	11.27051
5.52040	-16.10568	11.27051
5.52470	-16.12765	11.27051
5.52890	-16.14963	11.27051
5.53309	-16.14963	11.27051
5.53727	-16.17160	11.27051
5.54146	-16.17160	11.27051
5.54566	-16.19357	11.27051
5.54985	-16.19357	11.27051
5.55411	-16.21554	11.27051
5.55839	-16.21554	11.27051
5.56259	-16.23752	11.27051
5.56688	-16.23752	11.27051
5.57107	-16.23752	11.27051
5.57525	-16.25949	11.27051
5.57943	-16.25949	11.27051
5.58361	-16.28146	11.27051
5.58791	-16.30343	11.27051
5.59212	-16.30343	11.27051
5.59630	-16.32541	11.27051
5.60049	-16.32541	11.27051
5.60467	-16.32541	11.27051
5.60886	-16.34738	11.27051
5.61304	-16.36935	11.27051
5.61729	-16.36935	11.27051
5.62157	-16.36935	11.27051
5.62576	-16.36935	11.27051
5.62995	-16.39132	11.27051
5.63413	-16.39132	11.27051
5.63832	-16.41330	11.27051
5.64250	-16.41330	11.27051
5.64669	-16.43527	11.27051
5.65099	-16.43527	11.27051
5.65521	-16.43527	11.27051
5.65940	-16.43527	11.27051
5.66358	-16.45724	11.27051
5.66787	-16.45724	11.27051
5.67205	-16.45724	11.27051
5.67624	-16.45724	11.27051
5.68066	-16.47922	11.27051
5.68488	-16.47922	11.27051
5.68907	-16.47922	11.27051
5.69325	-16.50119	11.27051
5.69744	-16.50119	11.27051
5.70162	-16.50119	11.27051
5.70581	-16.50119	11.27051
5.71005	-16.52316	11.27051
5.71433	-16.52316	11.27051
5.71853	-16.54513	11.27051
5.72272	-16.54513	11.27051
5.72690	-16.54513	11.27051
5.73108	-16.54513	11.27051
5.73525	-16.54513	11.27051
5.73943	-16.54513	11.27051
5.74388	-16.56711	11.27051
5.74809	-16.56711	11.27051
5.75228	-16.56711	11.27051
5.75646	-16.56711	11.27051
5.76065	-16.56711	11.27051
5.76483	-16.56711	11.27051
5.76912	-16.56711	11.27051
5.77338	-16.58908	11.27051
5.77765	-16.58908	11.27051
5.78184	-16.58908	11.27051
5.78602	-16.58908	11.27051
5.79021	-16.58908	11.27051
5.79440	-16.58908	11.27051
5.79858	-16.58908	11.27051
5.80277	-16.58908	11.27051
5.80707	-16.58908	11.27051
5.81126	-16.58908	11.27051
5.81545	-16.61105	11.27051
5.81963	-16.58908	11.27051
5.82382	-16.58908	11.27051
5.82801	-16.61105	11.27051
5.83219	-16.61105	11.27051
5.83644	-16.58908	11.27051
5.84070	-16.61105	11.27051
5.84490	-16.58908	11.27051
5.84908	-16.61105	11.27051
5.85326	-16.58908	11.27051
5.85745	-16.58908	11.27051
5.86163	-16.58908	11.27051
5.86582	-16.58908	11.27051
5.87022	-16.58908	11.27051
5.87442	-16.58908	11.27051
5.87861	-16.58908	11.27051
5.88279	-16.61105	11.27051
5.88699	-16.61105	11.27051
5.89118	-16.58908	11.27051
5.89536	-16.58908	11.27051
5.89981	-16.58908	11.27051
5.90403	-16.56711	11.27051
5.90821	-16.58908	11.27051
5.91240	-16.56711	11.27051
5.91658	-16.56711	11.27051
5.92077	-16.56711	11.27051
5.92495	-16.56711	11.27051
5.92921	-16.56711	11.27051
5.93350	-16.56711	11.27051
5.93770	-16.56711	11.27051
5.94188	-16.56711	11.27051
5.94607	-16.54513	11.27051
5.95025	-16.54513	11.27051
5.95443	-16.54513	11.27051
5.95862	-16.54513	11.27051
5.96291	-16.54513	11.27051
5.96713	-16.54513	11.27051
5.97142	-16.54513	11.27051
5.97561	-16.50119	11.27051
5.97979	-16.52316	11.27051
5.98397	-16.50119	11.27051
5.98815	-16.50119	11.27051
5.99241	-16.50119	11.27051
5.99667	-16.50119	11.27051
6.00086	-16.47922	11.27051
6.00505	-16.50119	11.27051
6.00924	-16.47922	11.27051
6.01342	-16.47922	11.27051
6.01760	-16.47922	11.27051
6.02179	-16.47922	11.27051
6.02609	-16.45724	11.27051
6.03029	-16.47922	11.27051
6.03449	-16.45724	11.27051
6.03867	-16.45724	11.27051
6.04286	-16.45724	11.27051
6.04706	-16.43527	11.27051
6.05126	-16.43527	11.27051
6.05572	-16.43527	11.27051
6.05993	-16.41330	11.27051
6.06412	-16.41330	11.27051
6.06831	-16.41330	11.27051
6.07262	-16.41330	11.27051
6.07681	-16.39132	11.27051
6.08100	-16.39132	11.27051
6.08527	-16.39132	11.27051
6.08954	-16.39132	11.27051
6.09374	-16.36935	11.27051
6.09793	-16.36935	11.27051
6.10211	-16.36935	11.27051
6.10630	-16.34738	11.27051
6.11049	-16.34738	11.27051
6.11467	-16.34738	11.27051
6.11898	-16.32541	11.27051
6.12320	-16.32541	11.27051
6.12738	-16.32541	11.27051
6.13157	-16.30343	11.27051
6.13576	-16.30343	11.27051
6.13994	-16.30343	11.27051
6.14413	-16.28146	11.27051
6.14838	-16.28146	11.27051
6.15267	-16.28146	11.27051
6.15687	-16.25949	11.27051
6.16106	-16.25949	11.27051
6.16524	-16.25949	11.27051
6.16943	-16.23752	11.27051
6.17372	-16.23752	11.27051
6.17790	-16.23752	11.27051
6.18220	-16.23752	11.27051
6.18641	-16.21554	11.27051
6.19060	-16.21554	11.27051
6.19479	-16.19357	11.27051
6.19898	-16.19357	11.27051
6.20317	-16.19357	11.27051
6.20736	-16.19357	11.27051
6.21161	-16.17160	11.27051
6.21588	-16.14963	11.27051
6.22010	-16.14963	11.27051
6.22430	-16.14963	11.27051
6.22848	-16.14963	11.27051
6.23267	-16.12765	11.27051
6.23686	-16.12765	11.27051
6.24105	-16.12765	11.27051
6.24535	-16.10568	11.27051
6.24956	-16.10568	11.27051
6.25376	-16.10568	11.27051
6.25795	-16.10568	11.27051
6.26213	-16.08371	11.27051
6.26631	-16.08371	11.27051
6.27050	-16.06173	11.27051
6.27487	-16.06173	11.27051
6.27916	-16.06173	11.27051
6.28335	-16.06173	11.27051
6.28755	-16.03976	11.27051
6.29173	-16.03976	11.27051
6.29592	-16.01779	11.27051
6.30011	-16.01779	11.27051
6.30429	-16.01779	11.27051
6.30860	-16.01779	11.27051
6.31280	-15.99582	11.27051
6.31699	-15.99582	11.27051
6.32118	-15.97384	11.27051
6.32536	-15.97384	11.27051
6.32955	-15.97384	11.27051
6.33373	-15.97384	11.27051
6.33799	-15.95187	11.27051
6.34226	-15.95187	11.27051
6.34645	-15.95187	11.27051
6.35064	-15.92990	11.27051
6.35483	-15.92990	11.27051
6.35901	-15.92990	11.27051
6.36320	-15.92990	11.27051
6.36738	-15.90793	11.27051
6.37169	-15.90793	11.27051
6.37600	-15.88595	11.27051
6.38018	-15.88595	11.27051
6.38436	-15.88595	11.27051
6.38856	-15.88595	11.27051
6.39274	-15.86398	11.27051
6.39693	-15.86398	11.27051
6.40136	-15.86398	11.27051
6.40557	-15.86398	11.27051
6.40976	-15.84201	11.27051
6.41394	-15.84201	11.27051
6.41812	-15.82004	11.27051
6.42231	-15.82004	11.27051
6.42649	-15.82004	11.27051
6.43074	-15.82004	11.27051
6.43501	-15.79806	11.27051
6.43924	-15.79806	11.27051
6.44343	-15.79806	11.27051
6.44762	-15.79806	11.27051
6.45180	-15.77609	11.27051
6.45599	-15.79806	11.27051
6.46017	-15.77609	11.27051
6.46447	-15.77609	11.27051
6.46867	-15.77609	11.27051
6.47286	-15.77609	11.27051
6.47715	-15.75412	11.27051
6.48133	-15.75412	11.27051
6.48551	-15.75412	11.27051
6.48970	-15.73214	11.27051
6.49396	-15.75412	11.27051
6.49822	-15.73214	11.27051
6.50242	-15.73214	11.27051
6.50661	-15.73214	11.27051
6.51079	-15.73214	11.27051
6.51498	-15.73214	11.27051
6.51917	-15.73214	11.27051
6.52336	-15.71017	11.27051
6.52767	-15.73214	11.27051
6.53187	-15.71017	11.27051
6.53605	-15.71017	11.27051
6.54024	-15.71017	11.27051
6.54443	-15.71017	11.27051
6.54863	-15.68820	11.27051
6.55282	-15.71017	11.27051
6.55708	-15.71017	11.27051
6.56134	-15.68820	11.27051
6.56553	-15.68820	11.27051
6.56973	-15.68820	11.27051
6.57392	-15.68820	11.27051
6.57821	-15.68820	11.27051
6.58239	-15.68820	11.27051
6.58657	-15.68820	11.27051
6.59087	-15.68820	11.27051
6.59508	-15.68820	11.27051
6.59925	-15.68820	11.27051
6.60344	-15.68820	11.27051
6.60763	-15.68820	11.27051
6.61182	-15.68820	11.27051
6.61600	-15.68820	11.27051
6.62026	-15.68820	11.27051
6.62454	-15.68820	11.27051
6.62874	-15.68820	11.27051
6.63292	-15.68820	11.27051
6.63711	-15.68820	11.27051
6.64130	-15.66623	11.27051
6.64548	-15.68820	11.27051
6.64966	-15.68820	11.27051
6.65396	-15.68820	11.27051
6.65817	-15.68820	11.27051
6.66235	-15.68820	11.27051
6.66653	-15.68820	11.27051
6.67072	-15.68820	11.27051
6.67490	-15.68820	11.27051
6.67921	-15.68820	11.27051
6.68367	-15.68820	11.27051
6.68788	-15.68820	11.27051
6.69207	-15.68820	11.27051
6.69625	-15.68820	11.27051
6.70043	-15.68820	11.27051
6.70462	-15.68820	11.27051
6.70880	-15.71017	11.27051
6.71305	-15.68820	11.27051
6.71733	-15.68820	11.27051
6.72153	-15.68820	11.27051
6.72572	-15.68820	11.27051
6.72990	-15.71017	11.27051
6.73408	-15.68820	11.27051
6.73827	-15.68820	11.27051
6.74245	-15.71017	11.27051
6.74675	-15.71017	11.27051
6.75095	-15.71017	11.27051
6.75515	-15.71017	11.27051
6.75933	-15.71017	11.27051
6.76352	-15.71017	11.27051
6.76770	-15.71017	11.27051
6.77189	-15.71017	11.27051
6.77614	-15.71017	11.27051
6.78050	-15.71017	11.27051
6.78469	-15.71017	11.27051
6.78888	-15.71017	11.27051
6.79307	-15.71017	11.27051
6.79725	-15.71017	11.27051
6.80143	-15.73214	11.27051
6.80562	-15.73214	11.27051
6.80992	-15.71017	11.27051
6.81412	-15.73214	11.27051
6.81831	-15.73214	11.27051
6.82250	-15.73214	11.27051
6.82668	-15.73214	11.27051
6.83086	-15.73214	11.27051
6.83505	-15.73214	11.27051
6.83932	-15.73214	11.27051
6.84359	-15.73214	11.27051
6.84779	-15.73214	11.27051
6.85197	-15.73214	11.27051
6.85616	-15.73214	11.27051
6.86035	-15.75412	11.27051
6.86453	-15.75412	11.27051
6.86871	-15.73214	11.27051
6.87301	-15.75412	11.27051
6.87721	-15.75412	11.27051
6.88150	-15.75412	11.27051
6.88569	-15.75412	11.27051
6.88987	-15.75412	11.27051
6.89406	-15.75412	11.27051
6.89824	-15.77609	11.27051
6.90269	-15.75412	11.27051
6.90690	-15.77609	11.27051
6.91108	-15.77609	11.27051
6.91525	-15.77609	11.27051
6.91943	-15.77609	11.27051
6.92362	-15.77609	11.27051
6.92780	-15.77609	11.27051
6.93206	-15.77609	11.27051
6.93634	-15.77609	11.27051
6.94054	-15.77609	11.27051
6.94472	-15.79806	11.27051
6.94891	-15.79806	11.27051
6.95309	-15.79806	11.27051
6.95727	-15.79806	11.27051
6.96146	-15.79806	11.27051
6.96576	-15.79806	11.27051
6.96997	-15.79806	11.27051
6.97415	-15.79806	11.27051
6.97834	-15.82004	11.27051
6.98262	-15.82004	11.27051
6.98681	-15.82004	11.27051
6.99099	-15.82004	11.27051
6.99526	-15.82004	11.27051
6.99953	-15.82004	11.27051
7.00373	-15.82004	11.27051
7.00792	-15.82004	11.27051
7.01210	-15.84201	11.27051
7.01629	-15.84201	11.27051
7.02047	-15.84201	11.27051
7.02466	-15.84201	11.27051
7.02895	-15.84201	11.27051
7.03316	-15.86398	11.27051
7.03735	-15.86398	11.27051
7.04154	-15.86398	11.27051
7.04572	-15.86398	11.27051
7.04992	-15.86398	11.27051
7.05411	-15.86398	11.27051
7.05838	-15.86398	11.27051
7.06266	-15.88595	11.27051
7.06686	-15.88595	11.27051
7.07105	-15.88595	11.27051
7.07524	-15.88595	11.27051
7.07942	-15.88595	11.27051
7.08371	-15.88595	11.27051
7.08789	-15.90793	11.27051
7.09220	-15.90793	11.27051
7.09640	-15.90793	11.27051
7.10059	-15.90793	11.27051
7.10478	-15.90793	11.27051
7.10897	-15.92990	11.27051
7.11315	-15.92990	11.27051
7.11733	-15.92990	11.27051
7.12159	-15.92990	11.27051
7.12587	-15.92990	11.27051
7.13006	-15.92990	11.27051
7.13425	-15.92990	11.27051
7.13844	-15.95187	11.27051
7.14263	-15.95187	11.27051
7.14681	-15.95187	11.27051
7.15100	-15.95187	11.27051
7.15532	-15.95187	11.27051
7.15952	-15.97384	11.27051
7.16371	-15.97384	11.27051
7.16789	-15.97384	11.27051
7.17208	-15.97384	11.27051
7.17626	-15.97384	11.27051
7.18044	-15.97384	11.27051
7.18480	-15.99582	11.27051
7.18907	-15.99582	11.27051
7.19327	-15.99582	11.27051
7.19746	-16.01779	11.27051
7.20165	-16.01779	11.27051
7.20584	-16.01779	11.27051
7.21003	-16.01779	11.27051
7.21421	-16.01779	11.27051
7.21851	-16.03976	11.27051
7.22273	-16.03976	11.27051
7.22691	-16.03976	11.27051
7.23110	-16.03976	11.27051
7.23525	-16.03976	11.27051
7.23944	-16.03976	11.27051
7.24362	-16.06173	11.27051
7.24787	-16.06173	11.27051
7.25215	-16.06173	11.27051
7.25635	-16.06173	11.27051
7.26054	-16.06173	11.27051
7.26473	-16.08371	11.27051
7.26892	-16.08371	11.27051
7.27310	-16.08371	11.27051
7.27729	-16.08371	11.27051
7.28159	-16.10568	11.27051
7.28591	-16.08371	11.27051
7.29009	-16.10568	11.27051
7.29428	-16.10568	11.27051
7.29846	-16.10568	11.27051
7.30265	-16.12765	11.27051
7.30683	-16.12765	11.27051
7.31132	-16.12765	11.27051
7.31553	-16.14963	11.27051
7.31972	-16.14963	11.27051
7.32390	-16.14963	11.27051
7.32809	-16.14963	11.27051
7.33227	-16.14963	11.27051
7.33645	-16.17160	11.27051
7.34072	-16.17160	11.27051
7.34500	-16.17160	11.27051
7.34920	-16.19357	11.27051
7.35339	-16.19357	11.27051
7.35757	-16.19357	11.27051
7.36178	-16.19357	11.27051
7.36597	-16.19357	11.27051
7.37016	-16.21554	11.27051
7.37447	-16.21554	11.27051
7.37868	-16.21554	11.27051
7.38287	-16.21554	11.27051
7.38718	-16.23752	11.27051
7.39137	-16.23752	11.27051
7.39555	-16.23752	11.27051
7.39973	-16.25949	11.27051
7.40399	-16.25949	11.27051
7.40826	-16.25949	11.27051
7.41246	-16.25949	11.27051
7.41664	-16.25949	11.27051
7.42083	-16.28146	11.27051
7.42501	-16.28146	11.27051
7.42920	-16.30343	11.27051
7.43338	-16.30343	11.27051
7.43768	-16.30343	11.27051
7.44188	-16.30343	11.27051
7.44607	-16.32541	11.27051
7.45025	-16.32541	11.27051
7.45444	-16.32541	11.27051
7.45863	-16.34738	11.27051
7.46281	-16.34738	11.27051
7.46707	-16.34738	11.27051
7.47134	-16.34738	11.27051
7.47554	-16.34738	11.27051
7.47972	-16.36935	11.27051
7.48391	-16.36935	11.27051
7.48820	-16.36935	11.27051
7.49238	-16.39132	11.27051
7.49657	-16.39132	11.27051
7.50087	-16.39132	11.27051
7.50509	-16.41330	11.27051
7.50927	-16.41330	11.27051
7.51346	-16.41330	11.27051
7.51764	-16.43527	11.27051
7.52182	-16.41330	11.27051
7.52600	-16.43527	11.27051
7.53026	-16.43527	11.27051
7.53452	-16.43527	11.27051
7.53872	-16.43527	11.27051
7.54291	-16.45724	11.27051
7.54712	-16.45724	11.27051
7.55132	-16.45724	11.27051
7.55551	-16.47922	11.27051
7.55970	-16.47922	11.27051
7.56401	-16.47922	11.27051
7.56821	-16.47922	11.27051
7.57241	-16.47922	11.27051
7.57660	-16.50119	11.27051
7.58079	-16.50119	11.27051
7.58497	-16.50119	11.27051
7.58926	-16.50119	11.27051
7.59369	-16.50119	11.27051
7.59790	-16.52316	11.27051
7.60209	-16.52316	11.27051
7.60627	-16.52316	11.27051
7.61046	-16.54513	11.27051
7.61464	-16.54513	11.27051
7.61883	-16.54513	11.27051
7.62310	-16.54513	11.27051
7.62735	-16.56711	11.27051
7.63155	-16.56711	11.27051
7.63574	-16.56711	11.27051
7.63992	-16.56711	11.27051
7.64411	-16.56711	11.27051
7.64829	-16.56711	11.27051
7.65248	-16.58908	11.27051
7.65678	-16.58908	11.27051
7.66099	-16.58908	11.27051
7.66517	-16.58908	11.27051
7.66936	-16.58908	11.27051
7.67354	-16.61105	11.27051
7.67772	-16.61105	11.27051
7.68191	-16.61105	11.27051
7.68616	-16.61105	11.27051
7.69055	-16.61105	11.27051
7.69475	-16.63302	11.27051
7.69894	-16.63302	11.27051
7.70315	-16.63302	11.27051
7.70734	-16.65500	11.27051
7.71152	-16.63302	11.27051
7.71571	-16.65500	11.27051
7.72002	-16.65500	11.27051
7.72423	-16.65500	11.27051
7.72842	-16.65500	11.27051
7.73260	-16.67697	11.27051
7.73679	-16.65500	11.27051
7.74097	-16.67697	11.27051
7.74516	-16.67697	11.27051
7.74941	-16.67697	11.27051
7.75367	-16.67697	11.27051
7.75786	-16.67697	11.27051
7.76204	-16.67697	11.27051
7.76623	-16.69894	11.27051
7.77041	-16.69894	11.27051
7.77459	-16.69894	11.27051
7.77878	-16.69894	11.27051
7.78318	-16.69894	11.27051
7.78739	-16.69894	11.27051
7.79168	-16.69894	11.27051
7.79587	-16.72091	11.27051
7.80005	-16.72091	11.27051
7.80424	-16.72091	11.27051
7.80842	-16.69894	11.27051
7.81287	-16.72091	11.27051
7.81708	-16.72091	11.27051
7.82127	-16.72091	11.27051
7.82545	-16.72091	11.27051
7.82964	-16.72091	11.27051
7.83382	-16.72091	11.27051
7.83800	-16.74289	11.27051
7.84225	-16.72091	11.27051
7.84653	-16.72091	11.27051
7.85073	-16.74289	11.27051
7.85492	-16.74289	11.27051
7.85910	-16.72091	11.27051
7.86325	-16.74289	11.27051
7.86743	-16.72091	11.27051
7.87162	-16.72091	11.27051
7.87605	-16.72091	11.27051
7.88025	-16.72091	11.27051
7.88444	-16.72091	11.27051
7.88863	-16.72091	11.27051
7.89291	-16.72091	11.27051
7.89710	-16.74289	11.27051
7.90128	-16.72091	11.27051
7.90553	-16.72091	11.27051
7.90980	-16.72091	11.27051
7.91399	-16.72091	11.27051
7.91817	-16.72091	11.27051
7.92236	-16.72091	11.27051
7.92654	-16.72091	11.27051
7.93076	-16.72091	11.27051
7.93495	-16.72091	11.27051
7.93927	-16.72091	11.27051
7.94348	-16.72091	11.27051
7.94766	-16.72091	11.27051
7.95185	-16.72091	11.27051
7.95604	-16.72091	11.27051
7.96023	-16.72091	11.27051
7.96441	-16.72091	11.27051
7.96868	-16.72091	11.27051
7.97295	-16.72091	11.27051
7.97715	-16.69894	11.27051
7.98133	-16.72091	11.27051
7.98552	-16.72091	11.27051
7.98971	-16.69894	11.27051
7.99400	-16.69894	11.27051
7.99818	-16.69894	11.27051
8.00248	-16.69894	11.27051
8.00668	-16.69894	11.27051
8.01087	-16.69894	11.27051
8.01505	-16.69894	11.27051
8.01924	-16.69894	11.27051
8.02342	-16.69894	11.27051
8.02761	-16.69894	11.27051
8.03186	-16.69894	11.27051
8.03613	-16.69894	11.27051
8.04033	-16.69894	11.27051
8.04451	-16.69894	11.27051
8.04872	-16.67697	11.27051
8.05291	-16.69894	11.27051
8.05710	-16.67697	11.27051
8.06129	-16.67697	11.27051
8.06559	-16.69894	11.27051
8.06981	-16.67697	11.27051
8.07400	-16.67697	11.27051
8.07819	-16.67697	11.27051
8.08237	-16.67697	11.27051
8.08656	-16.67697	11.27051
8.09074	-16.67697	11.27051
8.09533	-16.67697	11.27051
8.09953	-16.67697	11.27051
8.10372	-16.67697	11.27051
8.10791	-16.67697	11.27051
8.11209	-16.67697	11.27051
8.11627	-16.67697	11.27051
8.12046	-16.67697	11.27051
8.12472	-16.67697	11.27051
8.12898	-16.67697	11.27051
8.13318	-16.67697	11.27051
8.13736	-16.67697	11.27051
8.14155	-16.67697	11.27051
8.14574	-16.67697	11.27051
8.14992	-16.67697	11.27051
8.15411	-16.65500	11.27051
8.15842	-16.65500	11.27051
8.16262	-16.67697	11.27051
8.16681	-16.65500	11.27051
8.17099	-16.65500	11.27051
8.17519	-16.67697	11.27051
8.17937	-16.65500	11.27051
8.18356	-16.65500	11.27051
8.18782	-16.65500	11.27051
8.19210	-16.65500	11.27051
8.19640	-16.65500	11.27051
8.20058	-16.65500	11.27051
8.20477	-16.65500	11.27051
8.20895	-16.67697	11.27051
8.21313	-16.65500	11.27051
8.21732	-16.65500	11.27051
8.22162	-16.65500	11.27051
8.22582	-16.65500	11.27051
8.23000	-16.65500	11.27051
8.23419	-16.65500	11.27051
8.23837	-16.65500	11.27051
8.24256	-16.65500	11.27051
8.24674	-16.65500	11.27051
8.25099	-16.65500	11.27051
8.25529	-16.65500	11.27051
8.25949	-16.65500	11.27051
8.26368	-16.65500	11.27051
8.26786	-16.65500	11.27051
8.27205	-16.65500	11.27051
8.27624	-16.65500	11.27051
8.28042	-16.65500	11.27051
8.28473	-16.65500	11.27051
8.28894	-16.65500	11.27051
8.29313	-16.65500	11.27051
8.29742	-16.63302	11.27051
8.30161	-16.63302	11.27051
8.30579	-16.65500	11.27051
8.30997	-16.65500	11.27051
8.31443	-16.65500	11.27051
8.31866	-16.65500	11.27051
8.32285	-16.65500	11.27051
8.32704	-16.65500	11.27051
8.33123	-16.65500	11.27051
8.33541	-16.63302	11.27051
8.33960	-16.65500	11.27051
8.34387	-16.65500	11.27051
8.34815	-16.63302	11.27051
8.35235	-16.63302	11.27051
8.35654	-16.65500	11.27051
8.36073	-16.63302	11.27051
8.36491	-16.63302	11.27051
8.36910	-16.63302	11.27051
8.37328	-16.63302	11.27051
8.37759	-16.63302	11.27051
8.38179	-16.63302	11.27051
8.38598	-16.63302	11.27051
8.39016	-16.63302	11.27051
8.39436	-16.63302	11.27051
8.39864	-16.63302	11.27051
8.40283	-16.61105	11.27051
8.40708	-16.61105	11.27051
8.41133	-16.61105	11.27051
8.41553	-16.63302	11.27051
8.41971	-16.61105	11.27051
8.42390	-16.61105	11.27051
8.42809	-16.61105	11.27051
8.43227	-16.61105	11.27051
8.43645	-16.61105	11.27051
8.44075	-16.61105	11.27051
8.44496	-16.58908	11.27051
8.44914	-16.61105	11.27051
8.45333	-16.58908	11.27051
8.45751	-16.58908	11.27051
8.46170	-16.58908	11.27051
8.46588	-16.58908	11.27051
8.47013	-16.58908	11.27051
8.47440	-16.58908	11.27051
8.47859	-16.56711	11.27051
8.48278	-16.58908	11.27051
8.48696	-16.58908	11.27051
8.49116	-16.56711	11.27051
8.49535	-16.56711	11.27051
8.49964	-16.56711	11.27051
8.50395	-16.54513	11.27051
8.50814	-16.54513	11.27051
8.51233	-16.56711	11.27051
8.51651	-16.54513	11.27051
8.52070	-16.54513	11.27051
8.52488	-16.54513	11.27051
8.52907	-16.54513	11.27051
8.53352	-16.54513	11.27051
8.53774	-16.52316	11.27051
8.54192	-16.52316	11.27051
8.54611	-16.52316	11.27051
8.55031	-16.50119	11.27051
8.55451	-16.52316	11.27051
8.55869	-16.50119	11.27051
8.56296	-16.50119	11.27051
8.56725	-16.50119	11.27051
8.57147	-16.50119	11.27051
8.57566	-16.47922	11.27051
8.57984	-16.50119	11.27051
8.58403	-16.47922	11.27051
8.58821	-16.47922	11.27051
8.59240	-16.47922	11.27051
8.59669	-16.45724	11.27051
8.60100	-16.45724	11.27051
8.60520	-16.45724	11.27051
8.60939	-16.45724	11.27051
8.61358	-16.45724	11.27051
8.61776	-16.45724	11.27051
8.62194	-16.43527	11.27051
8.62619	-16.43527	11.27051
8.63046	-16.43527	11.27051
8.63466	-16.41330	11.27051
8.63885	-16.43527	11.27051
8.64303	-16.43527	11.27051
8.64722	-16.41330	11.27051
8.65141	-16.41330	11.27051
8.65559	-16.39132	11.27051
8.65992	-16.39132	11.27051
8.66413	-16.39132	11.27051
8.66832	-16.36935	11.27051
8.67252	-16.36935	11.27051
8.67671	-16.39132	11.27051
8.68090	-16.36935	11.27051
8.68508	-16.36935	11.27051
8.68956	-16.34738	11.27051
8.69377	-16.32541	11.27051
8.69796	-16.32541	11.27051
8.70225	-16.34738	11.27051
8.70644	-16.32541	11.27051
8.71062	-16.32541	11.27051
8.71480	-16.30343	11.27051
8.71906	-16.30343	11.27051
8.72333	-16.30343	11.27051
8.72753	-16.30343	11.27051
8.73171	-16.28146	11.27051
8.73589	-16.28146	11.27051
8.74008	-16.28146	11.27051
8.74426	-16.25949	11.27051
8.74844	-16.25949	11.27051
8.75274	-16.25949	11.27051
8.75695	-16.25949	11.27051
8.76114	-16.25949	11.27051
8.76532	-16.23752	11.27051
8.76951	-16.23752	11.27051
8.77369	-16.23752	11.27051
8.77787	-16.21554	11.27051
8.78213	-16.21554	11.27051
8.78641	-16.19357	11.27051
8.79060	-16.19357	11.27051
8.79479	-16.19357	11.27051
8.79898	-16.19357	11.27051
8.80328	-16.17160	11.27051
8.80747	-16.19357	11.27051
8.81165	-16.17160	11.27051
8.81595	-16.14963	11.27051
8.82016	-16.14963	11.27051
8.82435	-16.14963	11.27051
8.82853	-16.14963	11.27051
8.83272	-16.14963	11.27051
8.83690	-16.12765	11.27051
8.84109	-16.12765	11.27051
8.84534	-16.12765	11.27051
8.84961	-16.10568	11.27051
8.85381	-16.10568	11.27051
8.85800	-16.10568	11.27051
8.86218	-16.08371	11.27051
8.86636	-16.08371	11.27051
8.87055	-16.08371	11.27051
8.87473	-16.08371	11.27051
8.87903	-16.06173	11.27051
8.88325	-16.06173	11.27051
8.88744	-16.03976	11.27051
8.89162	-16.06173	11.27051
8.89581	-16.03976	11.27051
8.89999	-16.03976	11.27051
8.90428	-16.03976	11.27051
8.90872	-16.01779	11.27051
8.91293	-16.01779	11.27051
8.91712	-16.01779	11.27051
8.92130	-15.99582	11.27051
8.92549	-15.99582	11.27051
8.92968	-15.97384	11.27051
8.93386	-15.97384	11.27051
8.93812	-15.97384	11.27051
8.94240	-15.97384	11.27051
8.94660	-15.95187	11.27051
8.95079	-15.95187	11.27051
8.95497	-15.95187	11.27051
8.95917	-15.95187	11.27051
8.96335	-15.95187	11.27051
8.96753	-15.92990	11.27051
8.97184	-15.90793	11.27051
8.97604	-15.92990	11.27051
8.98023	-15.90793	11.27051
8.98441	-15.90793	11.27051
8.98860	-15.90793	11.27051
8.99278	-15.88595	11.27051
8.99697	-15.88595	11.27051
9.00122	-15.86398	11.27051
9.00559	-15.86398	11.27051
9.00978	-15.86398	11.27051
9.01397	-15.86398	11.27051
9.01815	-15.84201	11.27051
9.02234	-15.84201	11.27051
9.02652	-15.84201	11.27051
9.03071	-15.82004	11.27051
9.03503	-15.82004	11.27051
9.03925	-15.82004	11.27051
9.04344	-15.79806	11.27051
9.04764	-15.79806	11.27051
9.05185	-15.79806	11.27051
9.05604	-15.79806	11.27051
9.06023	-15.77609	11.27051
9.06469	-15.77609	11.27051
9.06892	-15.77609	11.27051
9.07311	-15.77609	11.27051
9.07730	-15.75412	11.27051
9.08149	-15.75412	11.27051
9.08567	-15.75412	11.27051
9.08986	-15.75412	11.27051
9.09414	-15.75412	11.27051
9.09842	-15.73214	11.27051
9.10263	-15.71017	11.27051
9.10693	-15.73214	11.27051
9.11112	-15.71017	11.27051
9.11531	-15.71017	11.27051
9.11950	-15.71017	11.27051
9.12368	-15.68820	11.27051
9.12799	-15.68820	11.27051
9.13219	-15.68820	11.27051
9.13638	-15.66623	11.27051
9.14057	-15.66623	11.27051
9.14475	-15.66623	11.27051
9.14893	-15.66623	11.27051
9.15312	-15.66623	11.27051
9.15737	-15.66623	11.27051
9.16163	-15.64425	11.27051
9.16582	-15.64425	11.27051
9.17001	-15.64425	11.27051
9.17420	-15.62228	11.27051
9.17839	-15.62228	11.27051
9.18257	-15.62228	11.27051
9.18676	-15.62228	11.27051
9.19107	-15.60031	11.27051
9.19528	-15.60031	11.27051
9.19947	-15.57834	11.27051
9.20366	-15.60031	11.27051
9.20795	-15.57834	11.27051
9.21213	-15.57834	11.27051
9.21631	-15.57834	11.27051
9.22069	-15.57834	11.27051
9.22491	-15.55636	11.27051
9.22910	-15.55636	11.27051
9.23328	-15.55636	11.27051
9.23746	-15.55636	11.27051
9.24165	-15.53439	11.27051
9.24583	-15.53439	11.27051
9.25008	-15.53439	11.27051
9.25443	-15.53439	11.27051
9.25864	-15.51242	11.27051
9.26283	-15.51242	11.27051
9.26702	-15.51242	11.27051
9.27123	-15.51242	11.27051
9.27543	-15.51242	11.27051
9.27962	-15.49045	11.27051
9.28397	-15.49045	11.27051
9.28822	-15.49045	11.27051
9.29242	-15.49045	11.27051
9.29661	-15.49045	11.27051
9.30080	-15.49045	11.27051
9.30499	-15.46847	11.27051
9.30928	-15.46847	11.27051
9.31384	-15.46847	11.27051
9.31807	-15.46847	11.27051
9.32228	-15.44650	11.27051
9.32648	-15.44650	11.27051
9.33068	-15.44650	11.27051
9.33487	-15.44650	11.27051
9.33907	-15.44650	11.27051
9.34334	-15.44650	11.27051
9.34762	-15.42453	11.27051
9.35183	-15.42453	11.27051
9.35602	-15.42453	11.27051
9.36021	-15.42453	11.27051
9.36440	-15.42453	11.27051
9.36859	-15.42453	11.27051
9.37278	-15.40256	11.27051
9.37709	-15.40256	11.27051
9.38130	-15.40256	11.27051
9.38549	-15.40256	11.27051
9.38969	-15.40256	11.27051
9.39387	-15.40256	11.27051
9.39806	-15.40256	11.27051
9.40225	-15.40256	11.27051
9.40668	-15.38058	11.27051
9.41101	-15.38058	11.27051
9.41521	-15.38058	11.27051
9.41940	-15.38058	11.27051
9.42359	-15.38058	11.27051
9.42778	-15.38058	11.27051
9.43197	-15.38058	11.27051
9.43624	-15.38058	11.27051
9.44051	-15.38058	11.27051
9.44471	-15.38058	11.27051
9.44890	-15.35861	11.27051
9.45309	-15.38058	11.27051
9.45727	-15.35861	11.27051
9.46146	-15.35861	11.27051
9.46564	-15.38058	11.27051
9.46993	-15.35861	11.27051
9.47413	-15.35861	11.27051
9.47832	-15.35861	11.27051
9.48252	-15.35861	11.27051
9.48671	-15.35861	11.27051
9.49090	-15.35861	11.27051
9.49509	-15.35861	11.27051
9.49933	-15.35861	11.27051
9.50362	-15.35861	11.27051
9.50781	-15.35861	11.27051
9.51210	-15.35861	11.27051
9.51629	-15.35861	11.27051
9.52047	-15.35861	11.27051
9.52465	-15.35861	11.27051
9.52884	-15.35861	11.27051
9.53314	-15.35861	11.27051
9.53735	-15.35861	11.27051
9.54154	-15.35861	11.27051
9.54572	-15.35861	11.27051
9.54991	-15.38058	11.27051
9.55409	-15.35861	11.27051
9.55828	-15.38058	11.27051
9.56253	-15.38058	11.27051
9.56679	-15.35861	11.27051
9.57099	-15.38058	11.27051
9.57519	-15.38058	11.27051
9.57937	-15.38058	11.27051
9.58356	-15.38058	11.27051
9.58774	-15.38058	11.27051
9.59192	-15.38058	11.27051
9.59622	-15.38058	11.27051
9.60042	-15.38058	11.27051
9.60461	-15.38058	11.27051
9.60879	-15.40256	11.27051
9.61308	-15.40256	11.27051
9.61727	-15.40256	11.27051
9.62146	-15.40256	11.27051
9.62592	-15.40256	11.27051
9.63014	-15.42453	11.27051
9.63433	-15.42453	11.27051
9.63851	-15.42453	11.27051
9.64270	-15.42453	11.27051
9.64688	-15.44650	11.27051
9.65107	-15.42453	11.27051
9.65533	-15.44650	11.27051
9.65962	-15.44650	11.27051
9.66381	-15.44650	11.27051
9.66800	-15.44650	11.27051
9.67218	-15.44650	11.27051
9.67637	-15.46847	11.27051
9.68055	-15.46847	11.27051
9.68474	-15.46847	11.27051
9.68903	-15.49045	11.27051
9.69324	-15.49045	11.27051
9.69742	-15.49045	11.27051
9.70161	-15.49045	11.27051
9.70580	-15.49045	11.27051
9.70998	-15.49045	11.27051
9.71427	-15.51242	11.27051
9.71852	-15.51242	11.27051
9.72279	-15.51242	11.27051
9.72698	-15.51242	11.27051
9.73117	-15.53439	11.27051
9.73535	-15.51242	11.27051
9.73954	-15.53439	11.27051
9.74372	-15.53439	11.27051
9.74791	-15.55636	11.27051
9.75220	-15.55636	11.27051
9.75640	-15.55636	11.27051
9.76059	-15.55636	11.27051
9.76477	-15.55636	11.27051
9.76895	-15.57834	11.27051
9.77314	-15.57834	11.27051
9.77732	-15.57834	11.27051
9.78157	-15.57834	11.27051
9.78584	-15.60031	11.27051
9.79003	-15.60031	11.27051
9.79421	-15.60031	11.27051
9.79840	-15.60031	11.27051
9.80258	-15.62228	11.27051
9.80676	-15.60031	11.27051
9.81095	-15.62228	11.27051
9.81537	-15.62228	11.27051
9.81957	-15.62228	11.27051
9.82376	-15.64425	11.27051
9.82794	-15.64425	11.27051
9.83212	-15.64425	11.27051
9.83631	-15.64425	11.27051
9.84049	-15.64425	11.27051
9.84493	-15.66623	11.27051
9.84915	-15.66623	11.27051
9.85334	-15.66623	11.27051
9.85753	-15.66623	11.27051
9.86172	-15.66623	11.27051
9.86591	-15.66623	11.27051
9.87010	-15.68820	11.27051
9.87437	-15.68820	11.27051
9.87866	-15.68820	11.27051
9.88286	-15.68820	11.27051
9.88705	-15.68820	11.27051
9.89125	-15.71017	11.27051
9.89544	-15.71017	11.27051
9.89963	-15.71017	11.27051
9.90382	-15.71017	11.27051
9.90814	-15.71017	11.27051
9.91235	-15.71017	11.27051
9.91665	-15.73214	11.27051
9.92084	-15.73214	11.27051
9.92503	-15.73214	11.27051
9.92922	-15.73214	11.27051
9.93341	-15.73214	11.27051
9.93782	-15.73214	11.27051
9.94203	-15.73214	11.27051
9.94622	-15.73214	11.27051
9.95041	-15.73214	11.27051
9.95460	-15.75412	11.27051
9.95879	-15.75412	11.27051
9.96298	-15.75412	11.27051
9.96726	-15.75412	11.27051
9.97155	-15.75412	11.27051
9.97575	-15.75412	11.27051
9.97993	-15.77609	11.27051
9.98412	-15.77609	11.27051
9.98830	-15.77609	11.27051
9.99249	-15.77609	11.27051
9.99667	-15.77609	11.27051
10.00097	-15.77609	11.27051
10.00517	-15.77609	11.27051
10.00936	-15.77609	11.27051
10.01354	-15.77609	11.27051
10.01783	-15.77609	11.27051
10.02202	-15.77609	11.27051
10.02620	-15.79806	11.27051
10.03045	-15.77609	11.27051
10.03473	-15.79806	11.27051
10.03893	-15.79806	11.27051
10.04312	-15.79806	11.27051
10.04731	-15.77609	11.27051
10.05149	-15.79806	11.27051
10.05568	-15.79806	11.27051
10.05986	-15.79806	11.27051
10.06416	-15.79806	11.27051
10.06836	-15.79806	11.27051
10.07255	-15.79806	11.27051
10.07673	-15.79806	11.27051
10.08092	-15.79806	11.27051
10.08510	-15.79806	11.27051
10.08928	-15.79806	11.27051
10.09353	-15.79806	11.27051
10.09780	-15.79806	11.27051
10.10200	-15.79806	11.27051
10.10619	-15.79806	11.27051
10.11037	-15.79806	11.27051
10.11456	-15.79806	11.27051
10.11885	-15.79806	11.27051
10.12303	-15.79806	11.27051
10.12734	-15.79806	11.27051
10.13154	-15.79806	11.27051
10.13573	-15.79806	11.27051
10.13992	-15.79806	11.27051
10.14410	-15.79806	11.27051
10.14828	-15.79806	11.27051
10.15247	-15.79806	11.27051
10.15672	-15.79806	11.27051
10.16098	-15.79806	11.27051
10.16517	-15.79806	11.27051
10.16935	-15.79806	11.27051
10.17354	-15.79806	11.27051
10.17772	-15.79806	11.27051
10.18191	-15.79806	11.27051
10.18609	-15.77609	11.27051
10.19043	-15.79806	11.27051
10.19463	-15.79806	11.27051
10.19882	-15.79806	11.27051
10.20301	-15.79806	11.27051
10.20721	-15.79806	11.27051
10.21139	-15.79806	11.27051
10.21558	-15.79806	11.27051
10.22014	-15.77609	11.27051
10.22434	-15.77609	11.27051
10.22854	-15.79806	11.27051
10.23273	-15.79806	11.27051
10.23692	-15.79806	11.27051
10.24111	-15.79806	11.27051
10.24530	-15.77609	11.27051
10.24978	-15.79806	11.27051
10.25411	-15.77609	11.27051
10.25833	-15.77609	11.27051
10.26253	-15.77609	11.27051
10.26672	-15.77609	11.27051
10.27091	-15.77609	11.27051
10.27512	-15.77609	11.27051
10.27931	-15.77609	11.27051
10.28362	-15.77609	11.27051
10.28784	-15.77609	11.27051
10.29203	-15.77609	11.27051
10.29622	-15.77609	11.27051
10.30041	-15.77609	11.27051
10.30460	-15.77609	11.27051
10.30879	-15.77609	11.27051
10.31323	-15.77609	11.27051
10.31745	-15.75412	11.27051
10.32175	-15.77609	11.27051
10.32594	-15.75412	11.27051
10.33013	-15.75412	11.27051
10.33432	-15.75412	11.27051
10.33851	-15.77609	11.27051
10.34278	-15.75412	11.27051
10.34705	-15.75412	11.27051
10.35125	-15.73214	11.27051
10.35545	-15.73214	11.27051
10.35963	-15.75412	11.27051
10.36381	-15.75412	11.27051
10.36800	-15.75412	11.27051
10.37218	-15.73214	11.27051
10.37648	-15.73214	11.27051
10.38068	-15.75412	11.27051
10.38487	-15.75412	11.27051
10.38906	-15.73214	11.27051
10.39324	-15.73214	11.27051
10.39742	-15.73214	11.27051
10.40161	-15.73214	11.27051
10.40586	-15.73214	11.27051
10.41013	-15.73214	11.27051
10.41432	-15.73214	11.27051
10.41851	-15.73214	11.27051
10.42280	-15.73214	11.27051
10.42699	-15.73214	11.27051
10.43118	-15.73214	11.27051
10.43536	-15.73214	11.27051
10.43966	-15.71017	11.27051
10.44386	-15.73214	11.27051
10.44804	-15.71017	11.27051
10.45223	-15.73214	11.27051
10.45641	-15.71017	11.27051
10.46060	-15.71017	11.27051
10.46478	-15.71017	11.27051
10.46903	-15.71017	11.27051
10.47329	-15.71017	11.27051
10.47748	-15.71017	11.27051
10.48168	-15.68820	11.27051
10.48587	-15.71017	11.27051
10.49006	-15.71017	11.27051
10.49425	-15.71017	11.27051
10.49843	-15.68820	11.27051
10.50273	-15.71017	11.27051
10.50694	-15.71017	11.27051
10.51113	-15.71017	11.27051
10.51532	-15.71017	11.27051
10.51950	-15.71017	11.27051
10.52379	-15.71017	11.27051
10.52798	-15.71017	11.27051
10.53239	-15.68820	11.27051
10.53661	-15.71017	11.27051
10.54080	-15.71017	11.27051
10.54498	-15.68820	11.27051
10.54917	-15.71017	11.27051
10.55335	-15.68820	11.27051
10.55753	-15.68820	11.27051
10.56178	-15.71017	11.27051
10.56607	-15.71017	11.27051
10.57027	-15.68820	11.27051
10.57445	-15.71017	11.27051
10.57864	-15.68820	11.27051
10.58282	-15.68820	11.27051
10.58700	-15.68820	11.27051
10.59120	-15.68820	11.27051
10.59550	-15.68820	11.27051
10.59971	-15.71017	11.27051
10.60389	-15.68820	11.27051
10.60808	-15.71017	11.27051
10.61226	-15.68820	11.27051
10.61645	-15.68820	11.27051
10.62063	-15.71017	11.27051
10.62499	-15.71017	11.27051
10.62926	-15.68820	11.27051
10.63346	-15.71017	11.27051
10.63765	-15.71017	11.27051
10.64184	-15.71017	11.27051
10.64603	-15.71017	11.27051
10.65022	-15.71017	11.27051
10.65441	-15.68820	11.27051
10.65871	-15.71017	11.27051
10.66292	-15.71017	11.27051
10.66710	-15.68820	11.27051
10.67125	-15.68820	11.27051
10.67544	-15.68820	11.27051
10.67962	-15.71017	11.27051
10.68596	-15.71017	11.27051
10.69035	-15.71017	11.27051
10.69458	-15.71017	11.27051
10.69878	-15.71017	11.27051
10.70298	-15.71017	11.27051
10.70719	-15.71017	11.27051
10.71139	-15.71017	11.27051
10.71558	-15.71017	11.27051
10.72002	-15.71017	11.27051
10.72423	-15.71017	11.27051
10.72854	-15.71017	11.27051
10.73273	-15.71017	11.27051
10.73692	-15.71017	11.27051
10.74111	-15.71017	11.27051
10.74530	-15.71017	11.27051
10.74957	-15.71017	11.27051
10.75383	-15.71017	11.27051
10.75803	-15.71017	11.27051
10.76222	-15.71017	11.27051
10.76641	-15.71017	11.27051
10.77060	-15.71017	11.27051
10.77479	-15.71017	11.27051
10.77897	-15.71017	11.27051
10.78329	-15.73214	11.27051
10.78751	-15.71017	11.27051
10.79170	-15.71017	11.27051
10.79589	-15.71017	11.27051
10.80008	-15.73214	11.27051
10.80427	-15.71017	11.27051
10.80846	-15.71017	11.27051
10.81287	-15.71017	11.27051
10.81708	-15.71017	11.27051
10.82128	-15.73214	11.27051
10.82547	-15.73214	11.27051
10.82976	-15.71017	11.27051
10.83395	-15.73214	11.27051
10.83813	-15.71017	11.27051
10.84238	-15.71017	11.27051
10.84665	-15.73214	11.27051
10.85085	-15.73214	11.27051
10.85504	-15.73214	11.27051
10.85923	-15.73214	11.27051
10.86342	-15.73214	11.27051
10.86760	-15.73214	11.27051
10.87178	-15.73214	11.27051
10.87608	-15.73214	11.27051
10.88028	-15.71017	11.27051
10.88447	-15.71017	11.27051
10.88865	-15.71017	11.27051
10.89284	-15.71017	11.27051
10.89702	-15.71017	11.27051
10.90120	-15.73214	11.27051
10.90546	-15.73214	11.27051
10.90972	-15.73214	11.27051
10.91391	-15.73214	11.27051
10.91810	-15.73214	11.27051
10.92228	-15.73214	11.27051
10.92646	-15.71017	11.27051
10.93075	-15.73214	11.27051
10.93494	-15.71017	11.27051
10.93927	-15.73214	11.27051
10.94348	-15.73214	11.27051
10.94766	-15.73214	11.27051
10.95185	-15.73214	11.27051
10.95603	-15.73214	11.27051
10.96022	-15.73214	11.27051
10.96440	-15.73214	11.27051
10.96865	-15.73214	11.27051
10.97291	-15.73214	11.27051
10.97711	-15.73214	11.27051
10.98129	-15.73214	11.27051
10.98548	-15.73214	11.27051
10.98966	-15.73214	11.27051
10.99384	-15.73214	11.27051
10.99803	-15.73214	11.27051
11.00233	-15.73214	11.27051
11.00653	-15.73214	11.27051
11.01071	-15.73214	11.27051
11.01489	-15.73214	11.27051
11.01908	-15.73214	11.27051
11.02325	-15.73214	11.27051
11.02743	-15.73214	11.27051
11.03179	-15.73214	11.27051
11.03607	-15.75412	11.27051
11.04026	-15.73214	11.27051
11.04445	-15.73214	11.27051
11.04864	-15.73214	11.27051
11.05282	-15.73214	11.27051
11.05700	-15.75412	11.27051
11.06119	-15.75412	11.27051
11.06548	-15.75412	11.27051
11.06969	-15.75412	11.27051
11.07388	-15.75412	11.27051
11.07806	-15.75412	11.27051
11.08224	-15.75412	11.27051
11.08643	-15.75412	11.27051
11.09061	-15.75412	11.27051
11.09487	-15.75412	11.27051
11.09918	-15.75412	11.27051
11.10338	-15.75412	11.27051
11.10757	-15.75412	11.27051
11.11176	-15.75412	11.27051
11.11594	-15.75412	11.27051
11.12012	-15.77609	11.27051
11.12431	-15.75412	11.27051
11.12860	-15.75412	11.27051
11.13291	-15.77609	11.27051
11.13710	-15.75412	11.27051
11.14129	-15.77609	11.27051
11.14547	-15.77609	11.27051
11.14966	-15.77609	11.27051
11.15384	-15.77609	11.27051
11.15829	-15.77609	11.27051
11.16251	-15.77609	11.27051
11.16670	-15.77609	11.27051
11.17090	-15.77609	11.27051
11.17509	-15.77609	11.27051
11.17925	-15.77609	11.27051
11.18344	-15.77609	11.27051
11.18771	-15.77609	11.27051
11.19205	-15.79806	11.27051
11.19626	-15.77609	11.27051
11.20045	-15.79806	11.27051
11.20465	-15.77609	11.27051
11.20884	-15.79806	11.27051
11.21305	-15.79806	11.27051
11.21724	-15.79806	11.27051
11.22157	-15.79806	11.27051
11.22578	-15.79806	11.27051
11.22998	-15.79806	11.27051
11.23429	-15.79806	11.27051
11.23848	-15.79806	11.27051
11.24267	-15.79806	11.27051
11.24686	-15.79806	11.27051
11.25130	-15.79806	11.27051
11.25552	-15.82004	11.27051
11.25972	-15.82004	11.27051
11.26391	-15.82004	11.27051
11.26811	-15.82004	11.27051
11.27230	-15.82004	11.27051
11.27649	-15.82004	11.27051
11.28080	-15.82004	11.27051
11.28509	-15.82004	11.27051
11.28929	-15.82004	11.27051
11.29347	-15.82004	11.27051
11.29766	-15.82004	11.27051
11.30184	-15.82004	11.27051
11.30603	-15.82004	11.27051
11.31021	-15.82004	11.27051
11.31451	-15.82004	11.27051
11.31873	-15.82004	11.27051
11.32291	-15.84201	11.27051
11.32710	-15.82004	11.27051
11.33125	-15.84201	11.27051
11.33554	-15.82004	11.27051
11.33972	-15.84201	11.27051
11.34417	-15.84201	11.27051
11.34838	-15.84201	11.27051
11.35258	-15.84201	11.27051
11.35677	-15.84201	11.27051
11.36096	-15.84201	11.27051
11.36515	-15.86398	11.27051
11.36934	-15.86398	11.27051
11.37361	-15.86398	11.27051
11.37790	-15.86398	11.27051
11.38211	-15.86398	11.27051
11.38630	-15.86398	11.27051
11.39049	-15.88595	11.27051
11.39468	-15.88595	11.27051
11.39887	-15.86398	11.27051
11.40306	-15.86398	11.27051
11.40739	-15.86398	11.27051
11.41160	-15.88595	11.27051
11.41579	-15.88595	11.27051
11.41998	-15.88595	11.27051
11.42417	-15.88595	11.27051
11.42836	-15.88595	11.27051
11.43255	-15.88595	11.27051
11.43695	-15.88595	11.27051
11.44121	-15.88595	11.27051
11.44540	-15.88595	11.27051
11.44959	-15.88595	11.27051
11.45378	-15.88595	11.27051
11.45797	-15.88595	11.27051
11.46216	-15.90793	11.27051
11.46635	-15.90793	11.27051
11.47066	-15.90793	11.27051
11.47487	-15.90793	11.27051
11.47906	-15.90793	11.27051
11.48327	-15.90793	11.27051
11.48747	-15.92990	11.27051
11.49165	-15.92990	11.27051
11.49584	-15.92990	11.27051
11.50029	-15.92990	11.27051
11.50451	-15.92990	11.27051
11.50871	-15.92990	11.27051
11.51291	-15.92990	11.27051
11.51710	-15.92990	11.27051
11.52129	-15.95187	11.27051
11.52548	-15.95187	11.27051
11.52975	-15.95187	11.27051
11.53404	-15.95187	11.27051
11.53835	-15.95187	11.27051
11.54255	-15.95187	11.27051
11.54674	-15.95187	11.27051
11.55092	-15.95187	11.27051
11.55512	-15.97384	11.27051
11.55931	-15.97384	11.27051
11.56362	-15.95187	11.27051
11.56784	-15.97384	11.27051
11.57203	-15.97384	11.27051
11.57622	-15.97384	11.27051
11.58041	-15.97384	11.27051
11.58460	-15.97384	11.27051
11.58879	-15.97384	11.27051
11.59321	-15.99582	11.27051
11.59742	-15.99582	11.27051
11.60161	-15.99582	11.27051
11.60581	-15.99582	11.27051
11.61000	-15.99582	11.27051
11.61419	-16.01779	11.27051
11.61838	-16.01779	11.27051
11.62265	-15.99582	11.27051
11.62695	-16.01779	11.27051
11.63116	-16.01779	11.27051
11.63535	-16.01779	11.27051
11.63964	-16.01779	11.27051
11.64383	-16.03976	11.27051
11.64801	-16.03976	11.27051
11.65220	-16.03976	11.27051
11.65649	-16.03976	11.27051
11.66069	-16.06173	11.27051
11.66488	-16.06173	11.27051
11.66906	-16.06173	11.27051
11.67325	-16.06173	11.27051
11.67743	-16.06173	11.27051
11.68162	-16.06173	11.27051
11.68587	-16.08371	11.27051
11.69014	-16.08371	11.27051
11.69434	-16.08371	11.27051
11.69852	-16.08371	11.27051
11.70271	-16.10568	11.27051
11.70690	-16.08371	11.27051
11.71108	-16.10568	11.27051
11.71525	-16.10568	11.27051
11.71955	-16.10568	11.27051
11.72375	-16.10568	11.27051
11.72794	-16.12765	11.27051
11.73212	-16.10568	11.27051
11.73631	-16.14963	11.27051
11.74060	-16.12765	11.27051
11.74478	-16.12765	11.27051
11.74922	-16.14963	11.27051
11.75344	-16.14963	11.27051
11.75763	-16.14963	11.27051
11.76182	-16.17160	11.27051
11.76601	-16.14963	11.27051
11.77019	-16.14963	11.27051
11.77438	-16.17160	11.27051
11.77864	-16.17160	11.27051
11.78293	-16.19357	11.27051
11.78715	-16.19357	11.27051
11.79135	-16.19357	11.27051
11.79554	-16.19357	11.27051
11.79973	-16.19357	11.27051
11.80392	-16.19357	11.27051
11.80811	-16.21554	11.27051
11.81242	-16.21554	11.27051
11.81662	-16.21554	11.27051
11.82082	-16.21554	11.27051
11.82501	-16.23752	11.27051
11.82920	-16.23752	11.27051
11.83339	-16.23752	11.27051
11.83758	-16.23752	11.27051
11.84198	-16.23752	11.27051
11.84625	-16.23752	11.27051
11.85045	-16.25949	11.27051
11.85464	-16.25949	11.27051
11.85883	-16.25949	11.27051
11.86302	-16.25949	11.27051
11.86722	-16.28146	11.27051
11.87148	-16.28146	11.27051
11.87577	-16.28146	11.27051
11.87997	-16.28146	11.27051
11.88417	-16.30343	11.27051
11.88836	-16.30343	11.27051
11.89254	-16.30343	11.27051
11.89672	-16.30343	11.27051
11.90091	-16.30343	11.27051
11.90520	-16.30343	11.27051
11.90941	-16.30343	11.27051
11.91359	-16.32541	11.27051
11.91778	-16.32541	11.27051
11.92196	-16.32541	11.27051
11.92615	-16.32541	11.27051
11.93033	-16.32541	11.27051
11.93459	-16.32541	11.27051
11.93885	-16.34738	11.27051
11.94317	-16.34738	11.27051
11.94735	-16.34738	11.27051
11.95154	-16.34738	11.27051
11.95572	-16.36935	11.27051
11.95990	-16.34738	11.27051
11.96409	-16.36935	11.27051
11.96838	-16.34738	11.27051
11.97258	-16.36935	11.27051
11.97676	-16.36935	11.27051
11.98095	-16.36935	11.27051
11.98513	-16.36935	11.27051
11.98932	-16.39132	11.27051
11.99350	-16.36935	11.27051
11.99775	-16.39132	11.27051
12.00202	-16.39132	11.27051
12.00621	-16.39132	11.27051
12.01039	-16.39132	11.27051
12.01458	-16.39132	11.27051
12.01876	-16.39132	11.27051
12.02295	-16.39132	11.27051
12.02714	-16.39132	11.27051
12.03144	-16.39132	11.27051
12.03566	-16.41330	11.27051
12.03985	-16.41330	11.27051
12.04413	-16.39132	11.27051
12.04832	-16.41330	11.27051
12.05250	-16.41330	11.27051
12.05668	-16.41330	11.27051
12.06113	-16.41330	11.27051
12.06535	-16.41330	11.27051
12.06954	-16.41330	11.27051
12.07373	-16.41330	11.27051
12.07791	-16.41330	11.27051
12.08210	-16.41330	11.27051
12.08628	-16.41330	11.27051
12.09053	-16.41330	11.27051
12.09481	-16.41330	11.27051
12.09901	-16.41330	11.27051
12.10321	-16.41330	11.27051
12.10740	-16.41330	11.27051
12.11158	-16.41330	11.27051
12.11577	-16.39132	11.27051
12.11995	-16.41330	11.27051
12.12425	-16.41330	11.27051
12.12845	-16.41330	11.27051
12.13264	-16.41330	11.27051
12.13683	-16.41330	11.27051
12.14101	-16.41330	11.27051
12.14530	-16.41330	11.27051
12.14949	-16.41330	11.27051
12.15374	-16.41330	11.27051
12.15802	-16.39132	11.27051
12.16221	-16.39132	11.27051
12.16640	-16.41330	11.27051
12.17059	-16.41330	11.27051
12.17477	-16.41330	11.27051
12.17896	-16.41330	11.27051
12.18315	-16.39132	11.27051
12.18745	-16.39132	11.27051
12.19171	-16.41330	11.27051
12.19590	-16.39132	11.27051
12.20008	-16.39132	11.27051
12.20427	-16.39132	11.27051
12.20845	-16.36935	11.27051
12.21264	-16.39132	11.27051
12.21709	-16.39132	11.27051
12.22130	-16.39132	11.27051
12.22549	-16.36935	11.27051
12.22967	-16.39132	11.27051
12.23386	-16.36935	11.27051
12.23804	-16.36935	11.27051
12.24223	-16.36935	11.27051
12.24661	-16.36935	11.27051
12.25089	-16.36935	11.27051
12.25510	-16.36935	11.27051
12.25932	-16.34738	11.27051
12.26352	-16.36935	11.27051
12.26771	-16.34738	11.27051
12.27190	-16.34738	11.27051
12.27609	-16.34738	11.27051
12.28039	-16.34738	11.27051
12.28460	-16.32541	11.27051
12.28879	-16.32541	11.27051
12.29298	-16.32541	11.27051
12.29717	-16.34738	11.27051
12.30137	-16.34738	11.27051
12.30556	-16.30343	11.27051
12.31001	-16.32541	11.27051
12.31423	-16.30343	11.27051
12.31842	-16.30343	11.27051
12.32261	-16.30343	11.27051
12.32680	-16.30343	11.27051
12.33098	-16.28146	11.27051
12.33518	-16.28146	11.27051
12.33944	-16.28146	11.27051
12.34372	-16.28146	11.27051
12.34802	-16.28146	11.27051
12.35221	-16.28146	11.27051
12.35639	-16.25949	11.27051
12.36058	-16.25949	11.27051
12.36476	-16.23752	11.27051
12.36894	-16.25949	11.27051
12.37324	-16.25949	11.27051
12.37746	-16.23752	11.27051
12.38165	-16.23752	11.27051
12.38585	-16.23752	11.27051
12.39004	-16.21554	11.27051
12.39422	-16.21554	11.27051
12.39840	-16.21554	11.27051
12.40269	-16.21554	11.27051
12.40697	-16.21554	11.27051
12.41119	-16.19357	11.27051
12.41538	-16.19357	11.27051
12.41956	-16.19357	11.27051
12.42375	-16.17160	11.27051
12.42793	-16.17160	11.27051
12.43212	-16.17160	11.27051
12.43642	-16.14963	11.27051
12.44062	-16.17160	11.27051
12.44481	-16.14963	11.27051
12.44913	-16.14963	11.27051
12.45332	-16.14963	11.27051
12.45750	-16.14963	11.27051
12.46169	-16.12765	11.27051
12.46614	-16.12765	11.27051
12.47036	-16.12765	11.27051
12.47455	-16.10568	11.27051
12.47873	-16.10568	11.27051
12.48292	-16.10568	11.27051
12.48711	-16.10568	11.27051
12.49125	-16.10568	11.27051
12.49551	-16.08371	11.27051
12.49981	-16.08371	11.27051
12.50403	-16.08371	11.27051
12.50822	-16.06173	11.27051
12.51241	-16.06173	11.27051
12.51660	-16.06173	11.27051
12.52078	-16.06173	11.27051
12.52497	-16.06173	11.27051
12.52927	-16.03976	11.27051
12.53348	-16.03976	11.27051
12.53766	-16.03976	11.27051
12.54185	-16.03976	11.27051
12.54603	-16.03976	11.27051
12.55032	-16.01779	11.27051
12.55451	-16.01779	11.27051
12.55877	-16.01779	11.27051
12.56304	-16.01779	11.27051
12.56725	-15.99582	11.27051
12.57144	-15.99582	11.27051
12.57562	-15.99582	11.27051
12.57981	-15.97384	11.27051
12.58399	-15.97384	11.27051
12.58818	-15.97384	11.27051
12.59247	-15.97384	11.27051
12.59667	-15.97384	11.27051
12.60088	-15.95187	11.27051
12.60508	-15.95187	11.27051
12.60927	-15.95187	11.27051
12.61346	-15.95187	11.27051
12.61764	-15.95187	11.27051
12.62210	-15.95187	11.27051
12.62631	-15.92990	11.27051
12.63051	-15.92990	11.27051
12.63469	-15.92990	11.27051
12.63888	-15.92990	11.27051
12.64306	-15.92990	11.27051
12.64725	-15.90793	11.27051
12.65163	-15.90793	11.27051
12.65590	-15.90793	11.27051
12.66010	-15.88595	11.27051
12.66428	-15.88595	11.27051
12.66847	-15.90793	11.27051
12.67266	-15.88595	11.27051
12.67684	-15.88595	11.27051
12.68102	-15.88595	11.27051
12.68532	-15.88595	11.27051
12.68953	-15.86398	11.27051
12.69371	-15.86398	11.27051
12.69789	-15.86398	11.27051
12.70210	-15.86398	11.27051
12.70629	-15.86398	11.27051
12.71049	-15.86398	11.27051
12.71476	-15.86398	11.27051
12.71903	-15.84201	11.27051
12.72324	-15.84201	11.27051
12.72743	-15.84201	11.27051
12.73161	-15.84201	11.27051
12.73580	-15.82004	11.27051
12.73998	-15.84201	11.27051
12.74417	-15.84201	11.27051
12.74847	-15.82004	11.27051
12.75278	-15.79806	11.27051
12.75696	-15.82004	11.27051
12.76115	-15.79806	11.27051
12.76533	-15.79806	11.27051
12.76952	-15.79806	11.27051
12.77370	-15.79806	11.27051
12.77814	-15.79806	11.27051
12.78234	-15.79806	11.27051
12.78653	-15.77609	11.27051
12.79072	-15.77609	11.27051
12.79490	-15.77609	11.27051
12.79908	-15.77609	11.27051
12.80326	-15.77609	11.27051
12.80752	-15.77609	11.27051
12.81180	-15.77609	11.27051
12.81601	-15.75412	11.27051
12.82020	-15.75412	11.27051
12.82438	-15.75412	11.27051
12.82857	-15.75412	11.27051
12.83275	-15.75412	11.27051
12.83693	-15.75412	11.27051
12.84123	-15.75412	11.27051
12.84543	-15.75412	11.27051
12.84962	-15.75412	11.27051
12.85391	-15.75412	11.27051
12.85809	-15.75412	11.27051
12.86228	-15.75412	11.27051
12.86646	-15.73214	11.27051
12.87071	-15.73214	11.27051
12.87498	-15.73214	11.27051
12.87919	-15.73214	11.27051
12.88338	-15.73214	11.27051
12.88757	-15.73214	11.27051
12.89175	-15.73214	11.27051
12.89593	-15.73214	11.27051
12.90013	-15.73214	11.27051
12.90444	-15.73214	11.27051
12.90865	-15.73214	11.27051
12.91285	-15.73214	11.27051
12.91703	-15.73214	11.27051
12.92123	-15.73214	11.27051
12.92541	-15.73214	11.27051
12.92960	-15.73214	11.27051
12.93404	-15.73214	11.27051
12.93826	-15.73214	11.27051
12.94244	-15.73214	11.27051
12.94663	-15.73214	11.27051
12.95081	-15.75412	11.27051
12.95510	-15.75412	11.27051
12.95925	-15.73214	11.27051
12.96350	-15.73214	11.27051
12.96778	-15.73214	11.27051
12.97198	-15.73214	11.27051
12.97616	-15.75412	11.27051
12.98034	-15.75412	11.27051
12.98453	-15.75412	11.27051
12.98871	-15.75412	11.27051
12.99289	-15.75412	11.27051
12.99719	-15.75412	11.27051
13.00142	-15.75412	11.27051
13.00562	-15.75412	11.27051
13.00981	-15.75412	11.27051
13.01400	-15.77609	11.27051
13.01818	-15.75412	11.27051
13.02237	-15.77609	11.27051
13.02662	-15.77609	11.27051
13.03089	-15.77609	11.27051
13.03509	-15.77609	11.27051
13.03925	-15.77609	11.27051
13.04344	-15.79806	11.27051
13.04762	-15.79806	11.27051
13.05189	-15.79806	11.27051
13.05620	-15.79806	11.27051
13.06050	-15.79806	11.27051
13.06470	-15.79806	11.27051
13.06889	-15.82004	11.27051
13.07308	-15.82004	11.27051
13.07727	-15.82004	11.27051
13.08145	-15.84201	11.27051
13.08564	-15.84201	11.27051
13.09007	-15.84201	11.27051
13.09430	-15.84201	11.27051
13.09850	-15.84201	11.27051
13.10270	-15.86398	11.27051
13.10689	-15.86398	11.27051
13.11108	-15.86398	11.27051
13.11525	-15.86398	11.27051
13.11951	-15.88595	11.27051
13.12379	-15.88595	11.27051
13.12799	-15.88595	11.27051
13.13217	-15.88595	11.27051
13.13636	-15.88595	11.27051
13.14054	-15.90793	11.27051
13.14473	-15.90793	11.27051
13.14891	-15.92990	11.27051
13.15321	-15.92990	11.27051
13.15751	-15.92990	11.27051
13.16170	-15.92990	11.27051
13.16588	-15.92990	11.27051
13.17007	-15.95187	11.27051
13.17425	-15.95187	11.27051
13.17844	-15.97384	11.27051
13.18269	-15.97384	11.27051
13.18695	-15.97384	11.27051
13.19117	-15.99582	11.27051
13.19536	-15.99582	11.27051
13.19955	-15.99582	11.27051
13.20376	-16.01779	11.27051
13.20796	-16.01779	11.27051
13.21215	-16.03976	11.27051
13.21646	-16.03976	11.27051
13.22068	-16.01779	11.27051
13.22487	-16.03976	11.27051
13.22905	-16.06173	11.27051
13.23324	-16.06173	11.27051
13.23742	-16.06173	11.27051
13.24161	-16.08371	11.27051
13.24608	-16.08371	11.27051
13.25029	-16.08371	11.27051
13.25448	-16.10568	11.27051
13.25881	-16.10568	11.27051
13.26300	-16.10568	11.27051
13.26720	-16.12765	11.27051
13.27138	-16.12765	11.27051
13.27564	-16.12765	11.27051
13.27991	-16.14963	11.27051
13.28411	-16.14963	11.27051
13.28830	-16.14963	11.27051
13.29248	-16.17160	11.27051
13.29667	-16.17160	11.27051
13.30087	-16.17160	11.27051
13.30507	-16.17160	11.27051
13.30937	-16.19357	11.27051
13.31357	-16.19357	11.27051
13.31776	-16.21554	11.27051
13.32195	-16.21554	11.27051
13.32613	-16.21554	11.27051
13.33032	-16.21554	11.27051
13.33450	-16.23752	11.27051
13.33876	-16.23752	11.27051
13.34303	-16.23752	11.27051
13.34724	-16.25949	11.27051
13.35143	-16.25949	11.27051
13.35562	-16.28146	11.27051
13.35991	-16.28146	11.27051
13.36409	-16.28146	11.27051
13.36827	-16.30343	11.27051
13.37257	-16.30343	11.27051
13.37677	-16.30343	11.27051
13.38096	-16.32541	11.27051
13.38514	-16.32541	11.27051
13.38933	-16.32541	11.27051
13.39351	-16.32541	11.27051
13.39769	-16.32541	11.27051
13.40196	-16.34738	11.27051
13.40624	-16.34738	11.27051
13.41043	-16.36935	11.27051
13.41462	-16.36935	11.27051
13.41881	-16.36935	11.27051
13.42300	-16.39132	11.27051
13.42719	-16.39132	11.27051
13.43137	-16.39132	11.27051
13.43567	-16.41330	11.27051
13.43987	-16.41330	11.27051
13.44405	-16.41330	11.27051
13.44824	-16.41330	11.27051
13.45242	-16.43527	11.27051
13.45661	-16.43527	11.27051
13.46089	-16.43527	11.27051
13.46532	-16.45724	11.27051
13.46953	-16.45724	11.27051
13.47371	-16.45724	11.27051
13.47790	-16.45724	11.27051
13.48208	-16.45724	11.27051
13.48627	-16.47922	11.27051
13.49045	-16.47922	11.27051
13.49471	-16.47922	11.27051
13.49899	-16.50119	11.27051
13.50323	-16.50119	11.27051
13.50742	-16.50119	11.27051
13.51161	-16.50119	11.27051
13.51580	-16.50119	11.27051
13.51998	-16.52316	11.27051
13.52417	-16.52316	11.27051
13.52846	-16.52316	11.27051
13.53267	-16.54513	11.27051
13.53686	-16.54513	11.27051
13.54104	-16.54513	11.27051
13.54523	-16.54513	11.27051
13.54941	-16.54513	11.27051
13.55360	-16.54513	11.27051
13.55785	-16.56711	11.27051
13.56222	-16.56711	11.27051
13.56641	-16.56711	11.27051
13.57060	-16.56711	11.27051
13.57478	-16.56711	11.27051
13.57897	-16.58908	11.27051
13.58316	-16.58908	11.27051
13.58734	-16.58908	11.27051
13.59164	-16.58908	11.27051
13.59584	-16.58908	11.27051
13.60003	-16.58908	11.27051
13.60423	-16.61105	11.27051
13.60842	-16.61105	11.27051
13.61261	-16.61105	11.27051
13.61680	-16.61105	11.27051
13.62105	-16.63302	11.27051
13.62532	-16.63302	11.27051
13.62952	-16.63302	11.27051
13.63371	-16.63302	11.27051
13.63789	-16.63302	11.27051
13.64208	-16.63302	11.27051
13.64626	-16.63302	11.27051
13.65045	-16.65500	11.27051
13.65475	-16.65500	11.27051
13.65896	-16.65500	11.27051
13.66327	-16.65500	11.27051
13.66745	-16.65500	11.27051
13.67164	-16.65500	11.27051
13.67582	-16.67697	11.27051
13.68000	-16.67697	11.27051
13.68442	-16.67697	11.27051
13.68862	-16.67697	11.27051
13.69281	-16.67697	11.27051
13.69699	-16.67697	11.27051
13.70120	-16.67697	11.27051
13.70540	-16.69894	11.27051
13.70959	-16.67697	11.27051
13.71386	-16.69894	11.27051
13.71814	-16.69894	11.27051
13.72235	-16.69894	11.27051
13.72654	-16.69894	11.27051
13.73072	-16.69894	11.27051
13.73491	-16.69894	11.27051
13.73909	-16.69894	11.27051
13.74325	-16.69894	11.27051
13.74755	-16.69894	11.27051
13.75175	-16.72091	11.27051
13.75594	-16.69894	11.27051
13.76013	-16.72091	11.27051
13.76442	-16.69894	11.27051
13.76860	-16.69894	11.27051
13.77278	-16.69894	11.27051
13.77704	-16.69894	11.27051
13.78130	-16.69894	11.27051
13.78549	-16.72091	11.27051
13.78968	-16.69894	11.27051
13.79386	-16.72091	11.27051
13.79804	-16.72091	11.27051
13.80225	-16.69894	11.27051
13.80644	-16.69894	11.27051
13.81075	-16.69894	11.27051
13.81495	-16.69894	11.27051
13.81915	-16.69894	11.27051
13.82334	-16.69894	11.27051
13.82753	-16.67697	11.27051
13.83171	-16.69894	11.27051
13.83590	-16.69894	11.27051
13.84032	-16.67697	11.27051
13.84454	-16.69894	11.27051
13.84873	-16.67697	11.27051
13.85292	-16.67697	11.27051
13.85710	-16.67697	11.27051
13.86129	-16.67697	11.27051
13.86558	-16.67697	11.27051
13.86983	-16.67697	11.27051
13.87410	-16.67697	11.27051
13.87829	-16.65500	11.27051
13.88248	-16.65500	11.27051
13.88666	-16.65500	11.27051
13.89085	-16.65500	11.27051
13.89503	-16.63302	11.27051
13.89922	-16.63302	11.27051
13.90354	-16.63302	11.27051
13.90775	-16.63302	11.27051
13.91194	-16.61105	11.27051
13.91612	-16.61105	11.27051
13.92031	-16.61105	11.27051
13.92449	-16.61105	11.27051
13.92868	-16.61105	11.27051
13.93312	-16.58908	11.27051
13.93732	-16.58908	11.27051
13.94151	-16.58908	11.27051
13.94570	-16.56711	11.27051
13.94988	-16.56711	11.27051
13.95406	-16.56711	11.27051
13.95824	-16.56711	11.27051
13.96249	-16.56711	11.27051
13.96688	-16.54513	11.27051
13.97108	-16.54513	11.27051
13.97525	-16.54513	11.27051
13.97943	-16.54513	11.27051
13.98361	-16.52316	11.27051
13.98780	-16.52316	11.27051
13.99198	-16.50119	11.27051
13.99627	-16.50119	11.27051
14.00048	-16.50119	11.27051
14.00469	-16.47922	11.27051
14.00889	-16.47922	11.27051
14.01307	-16.50119	11.27051
14.01726	-16.47922	11.27051
14.02144	-16.45724	11.27051
14.02570	-16.45724	11.27051
14.02996	-16.45724	11.27051
14.03417	-16.45724	11.27051
14.03836	-16.45724	11.27051
14.04255	-16.43527	11.27051
14.04673	-16.43527	11.27051
14.05092	-16.41330	11.27051
14.05510	-16.41330	11.27051
14.05937	-16.41330	11.27051
14.06357	-16.39132	11.27051
14.06786	-16.39132	11.27051
14.07204	-16.39132	11.27051
14.07623	-16.36935	11.27051
14.08041	-16.36935	11.27051
14.08459	-16.36935	11.27051
14.08902	-16.34738	11.27051
14.09323	-16.34738	11.27051
14.09744	-16.34738	11.27051
14.10168	-16.34738	11.27051
14.10588	-16.32541	11.27051
14.11008	-16.30343	11.27051
14.11426	-16.30343	11.27051
14.11853	-16.30343	11.27051
14.12280	-16.30343	11.27051
14.12700	-16.30343	11.27051
14.13120	-16.28146	11.27051
14.13538	-16.28146	11.27051
14.13957	-16.28146	11.27051
14.14375	-16.28146	11.27051
14.14794	-16.25949	11.27051
14.15224	-16.25949	11.27051
14.15644	-16.23752	11.27051
14.16062	-16.23752	11.27051
14.16481	-16.23752	11.27051
14.16910	-16.23752	11.27051
14.17328	-16.23752	11.27051
14.17747	-16.21554	11.27051
14.18191	-16.19357	11.27051
14.18613	-16.19357	11.27051
14.19032	-16.19357	11.27051
14.19451	-16.19357	11.27051
14.19870	-16.19357	11.27051
14.20290	-16.17160	11.27051
14.20710	-16.17160	11.27051
14.21137	-16.17160	11.27051
14.21566	-16.14963	11.27051
14.21986	-16.14963	11.27051
14.22405	-16.14963	11.27051
14.22824	-16.14963	11.27051
14.23242	-16.12765	11.27051
14.23661	-16.12765	11.27051
14.24080	-16.12765	11.27051
14.24511	-16.12765	11.27051
14.24931	-16.12765	11.27051
14.25351	-16.10568	11.27051
14.25773	-16.10568	11.27051
14.26192	-16.08371	11.27051
14.26610	-16.08371	11.27051
14.27039	-16.08371	11.27051
14.27487	-16.08371	11.27051
14.27908	-16.08371	11.27051
14.28325	-16.06173	11.27051
14.28744	-16.06173	11.27051
14.29163	-16.06173	11.27051
14.29582	-16.06173	11.27051
14.30000	-16.06173	11.27051
14.30432	-16.03976	11.27051
14.30862	-16.03976	11.27051
14.31282	-16.03976	11.27051
14.31701	-16.03976	11.27051
14.32120	-16.01779	11.27051
14.32539	-16.01779	11.27051
14.32957	-16.01779	11.27051
14.33376	-16.01779	11.27051
14.33805	-16.01779	11.27051
14.34225	-16.01779	11.27051
14.34644	-16.01779	11.27051
14.35063	-15.99582	11.27051
14.35481	-15.99582	11.27051
14.35899	-15.99582	11.27051
14.36319	-15.99582	11.27051
14.36744	-15.99582	11.27051
14.37183	-15.99582	11.27051
14.37602	-15.99582	11.27051
14.38021	-15.99582	11.27051
14.38440	-15.97384	11.27051
14.38858	-15.99582	11.27051
14.39276	-15.97384	11.27051
14.39695	-15.97384	11.27051
14.40125	-15.97384	11.27051
14.40546	-15.99582	11.27051
14.40966	-15.97384	11.27051
14.41385	-15.97384	11.27051
14.41803	-15.97384	11.27051
14.42222	-15.97384	11.27051
14.42641	-15.97384	11.27051
14.43084	-15.97384	11.27051
14.43507	-15.97384	11.27051
14.43927	-15.97384	11.27051
14.44346	-15.97384	11.27051
14.44765	-15.97384	11.27051
14.45183	-15.97384	11.27051
14.45601	-15.97384	11.27051
14.46027	-15.97384	11.27051
14.46455	-15.97384	11.27051
14.46875	-15.97384	11.27051
14.47304	-15.97384	11.27051
14.47723	-15.97384	11.27051
14.48141	-15.97384	11.27051
14.48560	-15.97384	11.27051
14.48978	-15.97384	11.27051
14.49407	-15.97384	11.27051
14.49829	-15.97384	11.27051
14.50250	-15.99582	11.27051
14.50670	-15.99582	11.27051
14.51089	-15.97384	11.27051
14.51508	-15.99582	11.27051
14.51925	-15.97384	11.27051
14.52352	-15.99582	11.27051
14.52781	-15.99582	11.27051
14.53200	-15.99582	11.27051
14.53619	-15.99582	11.27051
14.54037	-15.99582	11.27051
14.54456	-15.99582	11.27051
14.54874	-15.99582	11.27051
14.55292	-16.01779	11.27051
14.55723	-16.01779	11.27051
14.56142	-16.01779	11.27051
14.56561	-16.01779	11.27051
14.56979	-16.03976	11.27051
14.57408	-16.03976	11.27051
14.57826	-16.03976	11.27051
14.58244	-16.03976	11.27051
14.58670	-16.03976	11.27051
14.59097	-16.03976	11.27051
14.59518	-16.06173	11.27051
14.59937	-16.06173	11.27051
14.60357	-16.06173	11.27051
14.60776	-16.08371	11.27051
14.61195	-16.08371	11.27051
14.61613	-16.08371	11.27051
14.62043	-16.08371	11.27051
14.62462	-16.10568	11.27051
14.62881	-16.10568	11.27051
14.63299	-16.10568	11.27051
14.63718	-16.12765	11.27051
14.64136	-16.12765	11.27051
14.64554	-16.12765	11.27051
14.64979	-16.14963	11.27051
14.65407	-16.14963	11.27051
14.65826	-16.14963	11.27051
14.66244	-16.14963	11.27051
14.66663	-16.17160	11.27051
14.67081	-16.17160	11.27051
14.67510	-16.17160	11.27051
14.67925	-16.19357	11.27051
14.68354	-16.19357	11.27051
14.68773	-16.19357	11.27051
14.69192	-16.19357	11.27051
14.69610	-16.21554	11.27051
14.70029	-16.21554	11.27051
14.70449	-16.23752	11.27051
14.70868	-16.23752	11.27051
14.71294	-16.25949	11.27051
14.71721	-16.25949	11.27051
14.72141	-16.25949	11.27051
14.72559	-16.28146	11.27051
14.72978	-16.28146	11.27051
14.73396	-16.28146	11.27051
14.73814	-16.30343	11.27051
14.74233	-16.30343	11.27051
14.74662	-16.30343	11.27051
14.75083	-16.32541	11.27051
14.75502	-16.32541	11.27051
14.75921	-16.34738	11.27051
14.76340	-16.34738	11.27051
14.76758	-16.34738	11.27051
14.77176	-16.34738	11.27051
14.77612	-16.36935	11.27051
14.78039	-16.36935	11.27051
14.78458	-16.39132	11.27051
14.78877	-16.39132	11.27051
14.79295	-16.39132	11.27051
14.79713	-16.39132	11.27051
14.80132	-16.41330	11.27051
14.80552	-16.43527	11.27051
14.80982	-16.43527	11.27051
14.81402	-16.43527	11.27051
14.81821	-16.45724	11.27051
14.82240	-16.45724	11.27051
14.82658	-16.45724	11.27051
14.83077	-16.47922	11.27051
14.83495	-16.47922	11.27051
14.83921	-16.50119	11.27051
14.84348	-16.50119	11.27051
14.84767	-16.50119	11.27051
14.85186	-16.50119	11.27051
14.85604	-16.52316	11.27051
14.86023	-16.52316	11.27051
14.86441	-16.54513	11.27051
14.86859	-16.54513	11.27051
14.87288	-16.54513	11.27051
14.87718	-16.54513	11.27051
14.88137	-16.56711	11.27051
14.88555	-16.56711	11.27051
14.88973	-16.58908	11.27051
14.89392	-16.58908	11.27051
14.89810	-16.58908	11.27051
14.90248	-16.61105	11.27051
14.90670	-16.61105	11.27051
14.91088	-16.61105	11.27051
14.91507	-16.63302	11.27051
14.91925	-16.63302	11.27051
14.92345	-16.63302	11.27051
14.92764	-16.65500	11.27051
14.93189	-16.65500	11.27051
14.93618	-16.65500	11.27051
14.94038	-16.65500	11.27051
14.94456	-16.67697	11.27051
14.94874	-16.67697	11.27051
14.95293	-16.67697	11.27051
14.95711	-16.69894	11.27051
14.96129	-16.69894	11.27051
14.96567	-16.69894	11.27051
14.96989	-16.72091	11.27051
14.97408	-16.72091	11.27051
14.97837	-16.72091	11.27051
14.98255	-16.72091	11.27051
14.98673	-16.74289	11.27051
14.99092	-16.74289	11.27051
14.99518	-16.74289	11.27051
14.99946	-16.74289	11.27051
15.00406	-16.76486	-1.69886
15.00824	-16.76486	-1.69886
15.01243	-16.76486	-1.69886
15.01661	-16.76486	-1.69886
15.02079	-16.78683	-1.69886
15.02497	-16.78683	-1.69886
15.02927	-16.78683	-1.69886
15.03347	-16.78683	-1.69886
15.03765	-16.78683	-1.69886
15.04184	-16.80881	-1.69886
15.04603	-16.80881	-1.69886
15.05021	-16.80881	-1.69886
15.05440	-16.80881	-1.69886
15.05866	-16.80881	-1.69886
15.06293	-16.80881	-1.69886
15.06714	-16.80881	-1.69886
15.07133	-16.80881	-1.69886
15.07551	-16.80881	-1.69886
15.07970	-16.80881	-1.69886
15.08388	-16.80881	-1.69886
15.08806	-16.80881	-1.69886
15.09236	-16.80881	-1.69886
15.09658	-16.78683	-1.69886
15.10078	-16.78683	-1.69886
15.10507	-16.76486	-1.69886
15.10926	-16.76486	-1.69886
15.11344	-16.74289	-1.69886
15.11762	-16.74289	-1.69886
15.12207	-16.72091	-1.69886
15.12630	-16.72091	-1.69886
15.13049	-16.69894	-1.69886
15.13467	-16.67697	-1.69886
15.13886	-16.67697	-1.69886
15.14304	-16.65500	-1.69886
15.14724	-16.63302	-1.69886
15.15148	-16.61105	-1.69886
15.15577	-16.58908	-1.69886
15.15997	-16.56711	-1.69886
15.16415	-16.56711	-1.69886
15.16834	-16.52316	-1.69886
15.17252	-16.50119	-1.69886
15.17671	-16.47922	-1.69886
15.18089	-16.43527	-1.69886
15.18525	-16.41330	-1.69886
15.18948	-16.41330	-1.69886
15.19367	-16.36935	-1.69886
15.19786	-16.32541	-1.69886
15.20204	-16.30343	-1.69886
15.20634	-16.25949	-1.69886
15.21052	-16.21554	-1.69886
15.21479	-16.17160	-1.69886
15.21909	-16.17160	-1.69886
15.22326	-16.10568	-1.69886
15.22744	-16.06173	-1.69886
15.23163	-15.99582	-1.69886
15.23581	-15.95187	-1.69886
15.24000	-15.90793	-1.69886
15.24418	-15.90793	-1.69886
15.24853	-15.84201	-1.69886
15.25278	-15.79806	-1.69886
15.25699	-15.73214	-1.69886
15.26121	-15.66623	-1.69886
15.26541	-15.60031	-1.69886
15.26962	-15.60031	-1.69886
15.27383	-15.55636	-1.69886
15.27943	-15.49045	-1.69886
15.28373	-15.40256	-1.69886
15.28794	-15.35861	-1.69886
15.29214	-15.27072	-1.69886
15.29633	-15.20480	-1.69886
15.30052	-15.11691	-1.69886
15.30471	-15.11691	-1.69886
15.30912	-15.05099	-1.69886
15.31342	-14.96310	-1.69886
15.31762	-14.89718	-1.69886
15.32181	-14.80929	-1.69886
15.32601	-14.74338	-1.69886
15.33020	-14.65548	-1.69886
15.33439	-14.65548	-1.69886
15.33858	-14.56759	-1.69886
15.34289	-14.47970	-1.69886
15.34709	-14.39181	-1.69886
15.35126	-14.28195	-1.69886
15.35545	-14.19406	-1.69886
15.35964	-14.19406	-1.69886
15.36383	-14.08420	-1.69886
15.36802	-13.99631	-1.69886
15.37229	-13.90841	-1.69886
15.37656	-13.82052	-1.69886
15.38076	-13.71066	-1.69886
15.38496	-13.60080	-1.69886
15.38915	-13.60080	-1.69886
15.39334	-13.49093	-1.69886
15.39753	-13.40304	-1.69886
15.40173	-13.29318	-1.69886
15.40603	-13.18332	-1.69886
15.41035	-13.07345	-1.69886
15.41455	-13.07345	-1.69886
15.41874	-12.94162	-1.69886
15.42293	-12.83175	-1.69886
15.42713	-12.72189	-1.69886
15.43132	-12.61203	-1.69886
15.43574	-12.61203	-1.69886
15.43995	-12.48019	-1.69886
15.44415	-12.37033	-1.69886
15.44834	-12.23849	-1.69886
15.45253	-12.12863	-1.69886
15.45672	-12.01877	-1.69886
15.46091	-11.88693	-1.69886
15.46517	-11.88693	-1.69886
15.46945	-11.75509	-1.69886
15.47365	-11.62326	-1.69886
15.47783	-11.49142	-1.69886
15.48202	-11.38156	-1.69886
15.48622	-11.24972	-1.69886
15.49041	-11.24972	-1.69886
15.49460	-11.11789	-1.69886
15.49890	-11.00802	-1.69886
15.50313	-10.85422	-1.69886
15.50732	-10.72238	-1.69886
15.51161	-10.59054	-1.69886
15.51579	-10.43673	-1.69886
15.51998	-10.43673	-1.69886
15.52416	-10.30490	-1.69886
15.52842	-10.15109	-1.69886
15.53268	-10.01925	-1.69886
15.53688	-9.86545	-1.69886
15.54106	-9.75558	-1.69886
15.54525	-9.75558	-1.69886
15.54943	-9.60177	-1.69886
15.55361	-9.44797	-1.69886
15.55780	-9.31613	-1.69886
15.56209	-9.16232	-1.69886
15.56630	-9.00851	-1.69886
15.57049	-9.00851	-1.69886
15.57468	-8.85470	-1.69886
15.57886	-8.70089	-1.69886
15.58304	-8.56906	-1.69886
15.58723	-8.41525	-1.69886
15.59149	-8.26144	-1.69886
15.59575	-8.10763	-1.69886
15.59995	-8.10763	-1.69886
15.60415	-7.95382	-1.69886
15.60833	-7.80002	-1.69886
15.61262	-7.62423	-1.69886
15.61680	-7.47043	-1.69886
15.62098	-7.47043	-1.69886
15.62528	-7.18478	-1.69886
15.62948	-7.18478	-1.69886
15.63367	-7.00900	-1.69886
15.63785	-6.85519	-1.69886
15.64204	-6.67941	-1.69886
15.64622	-6.52560	-1.69886
15.65040	-6.52560	-1.69886
15.65465	-6.34982	-1.69886
15.65892	-6.19601	-1.69886
15.66312	-6.02023	-1.69886
15.66731	-5.86642	-1.69886
15.67149	-5.69064	-1.69886
15.67567	-5.69064	-1.69886
15.67986	-5.53683	-1.69886
15.68404	-5.36105	-1.69886
15.68834	-5.18527	-1.69886
15.69254	-5.00949	-1.69886
15.69672	-5.00949	-1.69886
15.70091	-4.85568	-1.69886
15.70509	-4.67990	-1.69886
15.70928	-4.50412	-1.69886
15.71356	-4.35031	-1.69886
15.71800	-4.19650	-1.69886
15.72221	-4.02072	-1.69886
15.72641	-4.02072	-1.69886
15.73059	-3.82297	-1.69886
15.73478	-3.66916	-1.69886
15.73897	-3.49338	-1.69886
15.74317	-3.31759	-1.69886
15.74748	-3.14181	-1.69886
15.75179	-2.98800	-1.69886
15.75599	-2.98800	-1.69886
15.76018	-2.81222	-1.69886
15.76438	-2.63644	-1.69886
15.76856	-2.46066	-1.69886
15.77276	-2.28488	-1.69886
15.77694	-2.10910	-1.69886
15.78125	-2.10910	-1.69886
15.78546	-1.93332	-1.69886
15.78965	-1.73556	-1.69886
15.79384	-1.55978	-1.69886
15.79803	-1.42795	-1.69886
15.80222	-1.25216	-1.69886
15.80642	-1.25216	-1.69886
15.81068	-1.05441	-1.69886
15.81507	-0.87863	-1.69886
15.81927	-0.70285	-1.69886
15.82346	-0.52707	-1.69886
15.82765	-0.35129	-1.69886
15.83184	-0.35129	-1.69886
15.83603	-0.17550	-1.69886
15.84022	-0.02170	-1.69886
15.84453	0.15409	-1.69886
15.84874	0.32987	-1.69886
15.85293	0.52762	-1.69886
15.85712	0.70340	-1.69886
15.86130	0.70340	-1.69886
15.86549	0.87918	-1.69886
15.86967	1.05496	-1.69886
15.87411	1.23075	-1.69886
15.87833	1.40653	-1.69886
15.88252	1.56034	-1.69886
15.88671	1.73612	-1.69886
15.89089	1.73612	-1.69886
15.89508	1.91190	-1.69886
15.89926	2.08768	-1.69886
15.90352	2.28543	-1.69886
15.90781	2.46121	-1.69886
15.91201	2.46121	-1.69886
15.91632	2.61502	-1.69886
15.92051	2.81278	-1.69886
15.92469	2.98856	-1.69886
15.92888	3.16434	-1.69886
15.93307	3.34012	-1.69886
15.93738	3.34012	-1.69886
15.94158	3.51590	-1.69886
15.94577	3.69168	-1.69886
15.94996	3.84549	-1.69886
15.95415	4.04325	-1.69886
15.95834	4.21903	-1.69886
15.96253	4.21903	-1.69886
15.96680	4.37284	-1.69886
15.97108	4.50467	-1.69886
15.97527	4.68045	-1.69886
15.97947	4.85623	-1.69886
15.98367	5.03202	-1.69886
15.98786	5.18582	-1.69886
15.99205	5.18582	-1.69886
15.99624	5.33963	-1.69886
16.00056	5.53739	-1.69886
16.00478	5.69119	-1.69886
16.00898	5.82303	-1.69886
16.01316	5.99881	-1.69886
16.01746	5.99881	-1.69886
16.02164	6.15262	-1.69886
16.02583	6.30643	-1.69886
16.03024	6.48221	-1.69886
16.03447	6.63602	-1.69886
16.03866	6.78983	-1.69886
16.04285	6.78983	-1.69886
16.04703	6.94364	-1.69886
16.05123	7.11942	-1.69886
16.05544	7.25125	-1.69886
16.05976	7.38309	-1.69886
16.06406	7.55887	-1.69886
16.06826	7.71268	-1.69886
16.07245	7.71268	-1.69886
16.07664	7.86649	-1.69886
16.08083	7.99832	-1.69886
16.08501	8.15213	-1.69886
16.08920	8.30594	-1.69886
16.09350	8.43778	-1.69886
16.09770	8.56961	-1.69886
16.10189	8.56961	-1.69886
16.10607	8.72342	-1.69886
16.11029	8.87723	-1.69886
16.11445	9.00907	-1.69886
16.11871	9.16287	-1.69886
16.12295	9.29471	-1.69886
16.12721	9.29471	-1.69886
16.13139	9.42655	-1.69886
16.13556	9.58036	-1.69886
16.13972	9.69022	-1.69886
16.14388	9.82205	-1.69886
16.14805	9.95389	-1.69886
16.15222	9.95389	-1.69886
16.15650	10.08573	-1.69886
16.16067	10.21756	-1.69886
16.16484	10.34940	-1.69886
16.16900	10.48123	-1.69886
16.17317	10.48123	-1.69886
16.17733	10.61307	-1.69886
16.18149	10.74491	-1.69886
16.18574	10.85477	-1.69886
16.18998	10.98661	-1.69886
16.19419	11.11844	-1.69886
16.19836	11.11844	-1.69886
16.20252	11.22830	-1.69886
16.20669	11.36014	-1.69886
16.21088	11.47000	-1.69886
16.21506	11.60184	-1.69886
16.21948	11.71170	-1.69886
16.22367	11.79959	-1.69886
16.22785	11.79959	-1.69886
16.23203	11.93143	-1.69886
16.23622	12.01932	-1.69886
16.24040	12.12918	-1.69886
16.24459	12.23905	-1.69886
16.24898	12.34891	-1.69886
16.25320	12.34891	-1.69886
16.25738	12.45877	-1.69886
16.26157	12.56864	-1.69886
16.26575	12.63455	-1.69886
16.26994	12.74442	-1.69886
16.27412	12.85428	-1.69886
16.27837	12.85428	-1.69886
16.28266	12.94217	-1.69886
16.28686	13.05203	-1.69886
16.29105	13.13993	-1.69886
16.29524	13.22782	-1.69886
16.29942	13.33768	-1.69886
16.30360	13.33768	-1.69886
16.30779	13.42557	-1.69886
16.31209	13.49149	-1.69886
16.31630	13.57938	-1.69886
16.32059	13.66727	-1.69886
16.32477	13.73319	-1.69886
16.32896	13.82108	-1.69886
16.33314	13.82108	-1.69886
16.33732	13.90897	-1.69886
16.34158	13.99686	-1.69886
16.34585	14.06278	-1.69886
16.35005	14.12869	-1.69886
16.35424	14.19461	-1.69886
16.35842	14.19461	-1.69886
16.36261	14.26053	-1.69886
16.36679	14.34842	-1.69886
16.37097	14.41434	-1.69886
16.37530	14.48026	-1.69886
16.37955	14.54618	-1.69886
16.38374	14.54618	-1.69886
16.38793	14.61209	-1.69886
16.39211	14.67801	-1.69886
16.39630	14.72196	-1.69886
16.40048	14.78787	-1.69886
16.40488	14.83182	-1.69886
16.40910	14.87577	-1.69886
16.41329	14.87577	-1.69886
16.41748	14.94168	-1.69886
16.42176	14.98563	-1.69886
16.42595	15.05155	-1.69886
16.43013	15.09549	-1.69886
16.43438	15.13944	-1.69886
16.43867	15.13944	-1.69886
16.44287	15.18338	-1.69886
16.44706	15.22733	-1.69886
16.45125	15.27127	-1.69886
16.45543	15.31522	-1.69886
16.45962	15.31522	-1.69886
16.46380	15.33719	-1.69886
16.46812	15.38114	-1.69886
16.47232	15.42508	-1.69886
16.47651	15.44705	-1.69886
16.48069	15.46903	-1.69886
16.48488	15.49100	-1.69886
16.48908	15.49100	-1.69886
16.49327	15.53494	-1.69886
16.49754	15.53494	-1.69886
16.50182	15.57889	-1.69886
16.50601	15.60086	-1.69886
16.51020	15.62284	-1.69886
16.51439	15.62284	-1.69886
16.51858	15.64481	-1.69886
16.52287	15.64481	-1.69886
16.52706	15.66678	-1.69886
16.53137	15.66678	-1.69886
16.53557	15.68875	-1.69886
16.53976	15.68875	-1.69886
16.54394	15.68875	-1.69886
16.54812	15.71073	-1.69886
16.55231	15.71073	-1.69886
16.55651	15.71073	-1.69886
16.56077	15.71073	-1.69886
16.56505	15.71073	-1.69886
16.56925	15.71073	-1.69886
16.57344	15.71073	-1.69886
16.57763	15.71073	-1.69886
16.58182	15.71073	-1.69886
16.58601	15.71073	-1.69886
16.59019	15.71073	-1.69886
16.59449	15.71073	-1.69886
16.59869	15.68875	-1.69886
16.60288	15.68875	-1.69886
16.60706	15.68875	-1.69886
16.61125	15.68875	-1.69886
16.61543	15.64481	-1.69886
16.61962	15.64481	-1.69886
16.62397	15.64481	-1.69886
16.62825	15.62284	-1.69886
16.63244	15.60086	-1.69886
16.63662	15.57889	-1.69886
16.64081	15.55692	-1.69886
16.64499	15.55692	-1.69886
16.64917	15.53494	-1.69886
16.65335	15.51297	-1.69886
16.65765	15.49100	-1.69886
16.66185	15.44705	-1.69886
16.66603	15.40311	-1.69886
16.67021	15.40311	-1.69886
16.67440	15.40311	-1.69886
16.67858	15.35916	-1.69886
16.68276	15.31522	-1.69886
16.68701	15.27127	-1.69886
16.69129	15.24930	-1.69886
16.69548	15.20536	-1.69886
16.69967	15.20536	-1.69886
16.70385	15.16141	-1.69886
16.70804	15.11746	-1.69886
16.71223	15.07352	-1.69886
16.71641	15.02957	-1.69886
16.72071	15.02957	-1.69886
16.72501	14.96366	-1.69886
16.72919	14.91971	-1.69886
16.73337	14.87577	-1.69886
16.73756	14.83182	-1.69886
16.74174	14.76590	-1.69886
16.74592	14.72196	-1.69886
16.75033	14.72196	-1.69886
16.75454	14.65604	-1.69886
16.75872	14.61209	-1.69886
16.76291	14.54618	-1.69886
16.76709	14.48026	-1.69886
16.77125	14.48026	-1.69886
16.77543	14.37039	-1.69886
16.77967	14.37039	-1.69886
16.78395	14.30448	-1.69886
16.78814	14.23856	-1.69886
16.79233	14.17264	-1.69886
16.79651	14.10672	-1.69886
16.80069	14.10672	-1.69886
16.80487	14.04080	-1.69886
16.80906	13.95291	-1.69886
16.81347	13.88700	-1.69886
16.81768	13.82108	-1.69886
16.82187	13.75516	-1.69886
16.82615	13.66727	-1.69886
16.83034	13.66727	-1.69886
16.83452	13.60135	-1.69886
16.83870	13.51346	-1.69886
16.84294	13.44754	-1.69886
16.84724	13.35965	-1.69886
16.85144	13.27176	-1.69886
16.85562	13.27176	-1.69886
16.85981	13.18387	-1.69886
16.86399	13.11795	-1.69886
16.86817	13.03006	-1.69886
16.87235	12.94217	-1.69886
16.87673	12.85428	-1.69886
16.88096	12.76639	-1.69886
16.88515	12.76639	-1.69886
16.88933	12.67850	-1.69886
16.89352	12.59061	-1.69886
16.89770	12.48075	-1.69886
16.90188	12.39286	-1.69886
16.90612	12.32694	-1.69886
16.91040	12.32694	-1.69886
16.91461	12.21707	-1.69886
16.91879	12.12918	-1.69886
16.92298	12.01932	-1.69886
16.92727	11.93143	-1.69886
16.93146	11.82157	-1.69886
16.93564	11.82157	-1.69886
16.93993	11.73368	-1.69886
16.94413	11.62381	-1.69886
16.94831	11.51395	-1.69886
16.95250	11.42606	-1.69886
16.95668	11.31619	-1.69886
16.96086	11.31619	-1.69886
16.96504	11.20633	-1.69886
16.96928	11.11844	-1.69886
16.97355	11.00858	-1.69886
16.97774	10.89871	-1.69886
16.98192	10.89871	-1.69886
16.98611	10.78885	-1.69886
16.99029	10.67899	-1.69886
16.99449	10.59110	-1.69886
16.99867	10.48123	-1.69886
17.00297	10.37137	-1.69886
17.00718	10.26151	-1.69886
17.01137	10.26151	-1.69886
17.01556	10.12967	-1.69886
17.01974	10.01981	-1.69886
17.02393	9.90994	-1.69886
17.02821	9.80008	-1.69886
17.03260	9.69022	-1.69886
17.03682	9.58036	-1.69886
17.04101	9.58036	-1.69886
17.04520	9.47049	-1.69886
17.04938	9.36063	-1.69886
17.05358	9.22879	-1.69886
17.05779	9.11893	-1.69886
17.06206	8.98709	-1.69886
17.06635	8.98709	-1.69886
17.07056	8.87723	-1.69886
17.07475	8.74539	-1.69886
17.07893	8.65750	-1.69886
17.08314	8.54764	-1.69886
17.08733	8.41580	-1.69886
17.09151	8.41580	-1.69886
17.09582	8.28397	-1.69886
17.10003	8.17411	-1.69886
17.10422	8.04227	-1.69886
17.10841	7.93241	-1.69886
17.11260	7.82254	-1.69886
17.11679	7.71268	-1.69886
17.12098	7.71268	-1.69886
17.12524	7.58084	-1.69886
17.12962	7.47098	-1.69886
17.13381	7.33914	-1.69886
17.13800	7.20731	-1.69886
17.14218	7.09744	-1.69886
17.14636	7.09744	-1.69886
17.15055	6.96561	-1.69886
17.15473	6.83377	-1.69886
17.15903	6.72391	-1.69886
17.16324	6.61405	-1.69886
17.16743	6.50418	-1.69886
17.17161	6.50418	-1.69886
17.17580	6.37235	-1.69886
17.17998	6.24051	-1.69886
17.18416	6.10868	-1.69886
17.18842	5.99881	-1.69886
17.19273	5.86698	-1.69886
17.19693	5.86698	-1.69886
17.20112	5.73514	-1.69886
17.20530	5.60330	-1.69886
17.20950	5.49344	-1.69886
17.21368	5.36161	-1.69886
17.21787	5.22977	-1.69886
17.22218	5.22977	-1.69886
17.22637	5.11991	-1.69886
17.23066	4.98807	-1.69886
17.23485	4.85623	-1.69886
17.23903	4.74637	-1.69886
17.24322	4.74637	-1.69886
17.24741	4.61453	-1.69886
17.25183	4.50467	-1.69886
17.25605	4.39481	-1.69886
17.26024	4.26297	-1.69886
17.26442	4.15311	-1.69886
17.26861	4.02127	-1.69886
17.27279	4.02127	-1.69886
17.27698	3.88944	-1.69886
17.28122	3.75760	-1.69886
17.28551	3.64774	-1.69886
17.28971	3.53787	-1.69886
17.29389	3.42801	-1.69886
17.29807	3.29618	-1.69886
17.30226	3.29618	-1.69886
17.30644	3.18631	-1.69886
17.31063	3.05448	-1.69886
17.31504	2.94461	-1.69886
17.31927	2.81278	-1.69886
17.32346	2.70291	-1.69886
17.32764	2.70291	-1.69886
17.33193	2.57108	-1.69886
17.33611	2.48319	-1.69886
17.34030	2.37332	-1.69886
17.34455	2.24149	-1.69886
17.34883	2.13162	-1.69886
17.35302	1.99979	-1.69886
17.35721	1.99979	-1.69886
17.36140	1.88993	-1.69886
17.36558	1.78006	-1.69886
17.36976	1.64823	-1.69886
17.37395	1.56034	-1.69886
17.37825	1.45047	-1.69886
17.38246	1.45047	-1.69886
17.38664	1.34061	-1.69886
17.39083	1.23075	-1.69886
17.39501	1.12088	-1.69886
17.39920	1.01102	-1.69886
17.40339	0.90116	-1.69886
17.40764	0.90116	-1.69886
17.41192	0.79129	-1.69886
17.41612	0.68143	-1.69886
17.42030	0.59354	-1.69886
17.42448	0.48368	-1.69886
17.42867	0.37381	-1.69886
17.43296	0.26395	-1.69886
17.43714	0.26395	-1.69886
17.44144	0.15409	-1.69886
17.44564	0.06619	-1.69886
17.44983	-0.04367	-1.69886
17.45401	-0.15353	-1.69886
17.45820	-0.15353	-1.69886
17.46238	-0.24142	-1.69886
17.46657	-0.35129	-1.69886
17.47081	-0.43918	-1.69886
17.47509	-0.54904	-1.69886
17.47926	-0.63693	-1.69886
17.48344	-0.63693	-1.69886
17.48765	-0.72482	-1.69886
17.49183	-0.83468	-1.69886
17.49602	-0.92257	-1.69886
17.50020	-1.01047	-1.69886
17.50451	-1.09836	-1.69886
17.50870	-1.18625	-1.69886
17.51289	-1.18625	-1.69886
17.51708	-1.27414	-1.69886
17.52126	-1.36203	-1.69886
17.52544	-1.44992	-1.69886
17.52963	-1.53781	-1.69886
17.53398	-1.53781	-1.69886
17.53826	-1.60373	-1.69886
17.54246	-1.69162	-1.69886
17.54664	-1.75754	-1.69886
17.55083	-1.84543	-1.69886
17.55502	-1.93332	-1.69886
17.55923	-1.99923	-1.69886
17.56342	-1.99923	-1.69886
17.56773	-2.08713	-1.69886
17.57193	-2.17502	-1.69886
17.57611	-2.24093	-1.69886
17.58030	-2.30685	-1.69886
17.58448	-2.39474	-1.69886
17.58867	-2.46066	-1.69886
17.59285	-2.46066	-1.69886
17.59710	-2.52658	-1.69886
17.60137	-2.59250	-1.69886
17.60556	-2.68039	-1.69886
17.60975	-2.72433	-1.69886
17.61393	-2.72433	-1.69886
17.61811	-2.81222	-1.69886
17.62231	-2.87814	-1.69886
17.62649	-2.94406	-1.69886
17.63080	-2.98800	-1.69886
17.63510	-3.05392	-1.69886
17.63925	-3.11984	-1.69886
17.64344	-3.11984	-1.69886
17.64762	-3.18576	-1.69886
17.65181	-3.25168	-1.69886
17.65599	-3.29562	-1.69886
17.66038	-3.36154	-1.69886
17.66462	-3.40548	-1.69886
17.66881	-3.40548	-1.69886
17.67299	-3.47140	-1.69886
17.67718	-3.51535	-1.69886
17.68136	-3.58127	-1.69886
17.68554	-3.62521	-1.69886
17.68979	-3.66916	-1.69886
17.69408	-3.73507	-1.69886
17.69828	-3.73507	-1.69886
17.70246	-3.77902	-1.69886
17.70665	-3.84494	-1.69886
17.71083	-3.88888	-1.69886
17.71501	-3.93283	-1.69886
17.71921	-3.93283	-1.69886
17.72350	-3.97677	-1.69886
17.72770	-4.02072	-1.69886
17.73189	-4.06466	-1.69886
17.73618	-4.10861	-1.69886
17.74036	-4.15256	-1.69886
17.74455	-4.15256	-1.69886
17.74873	-4.19650	-1.69886
17.75298	-4.21847	-1.69886
17.75725	-4.26242	-1.69886
17.76145	-4.28439	-1.69886
17.76564	-4.32834	-1.69886
17.76982	-4.35031	-1.69886
17.77401	-4.35031	-1.69886
17.77819	-4.39425	-1.69886
17.78237	-4.43820	-1.69886
17.78667	-4.46017	-1.69886
17.79087	-4.48214	-1.69886
17.79506	-4.48214	-1.69886
17.79925	-4.50412	-1.69886
17.80343	-4.52609	-1.69886
17.80762	-4.57004	-1.69886
17.81180	-4.59201	-1.69886
17.81605	-4.61398	-1.69886
17.82032	-4.63595	-1.69886
17.82452	-4.63595	-1.69886
17.82870	-4.65793	-1.69886
17.83289	-4.67990	-1.69886
17.83718	-4.70187	-1.69886
17.84136	-4.72384	-1.69886
17.84554	-4.72384	-1.69886
17.84984	-4.74582	-1.69886
17.85404	-4.74582	-1.69886
17.85822	-4.76779	-1.69886
17.86241	-4.78976	-1.69886
17.86659	-4.78976	-1.69886
17.87078	-4.81173	-1.69886
17.87496	-4.81173	-1.69886
17.87923	-4.81173	-1.69886
17.88350	-4.83371	-1.69886
17.88770	-4.83371	-1.69886
17.89188	-4.83371	-1.69886
17.89607	-4.83371	-1.69886
17.90025	-4.85568	-1.69886
17.90443	-4.85568	-1.69886
17.90862	-4.85568	-1.69886
17.91291	-4.85568	-1.69886
17.91712	-4.85568	-1.69886
17.92130	-4.87765	-1.69886
17.92549	-4.85568	-1.69886
17.92967	-4.87765	-1.69886
17.93386	-4.87765	-1.69886
17.93814	-4.85568	-1.69886
17.94254	-4.85568	-1.69886
17.94677	-4.85568	-1.69886
17.95096	-4.85568	-1.69886
17.95516	-4.85568	-1.69886
17.95934	-4.85568	-1.69886
17.96353	-4.83371	-1.69886
17.96771	-4.83371	-1.69886
17.97195	-4.83371	-1.69886
17.97624	-4.81173	-1.69886
17.98043	-4.81173	-1.69886
17.98462	-4.78976	-1.69886
17.98880	-4.78976	-1.69886
17.99299	-4.76779	-1.69886
17.99717	-4.76779	-1.69886
18.00136	-4.74582	-1.69886
18.00576	-4.74582	-1.69886
18.01000	-4.72384	-1.69886
18.01419	-4.72384	-1.69886
18.01837	-4.70187	-1.69886
18.02256	-4.67990	-1.69886
18.02676	-4.65793	-1.69886
18.03094	-4.63595	-1.69886
18.03528	-4.63595	-1.69886
18.03968	-4.61398	-1.69886
18.04387	-4.59201	-1.69886
18.04806	-4.57004	-1.69886
18.05224	-4.54806	-1.69886
18.05643	-4.52609	-1.69886
18.06063	-4.50412	-1.69886
18.06482	-4.50412	-1.69886
18.06913	-4.46017	-1.69886
18.07334	-4.43820	-1.69886
18.07753	-4.39425	-1.69886
18.08172	-4.37228	-1.69886
18.08590	-4.37228	-1.69886
18.09009	-4.35031	-1.69886
18.09428	-4.30636	-1.69886
18.09855	-4.28439	-1.69886
18.10282	-4.26242	-1.69886
18.10702	-4.21847	-1.69886
18.11122	-4.17453	-1.69886
18.11540	-4.17453	-1.69886
18.11960	-4.15256	-1.69886
18.12378	-4.10861	-1.69886
18.12797	-4.06466	-1.69886
18.13226	-4.02072	-1.69886
18.13647	-3.99875	-1.69886
18.14076	-3.95480	-1.69886
18.14494	-3.95480	-1.69886
18.14913	-3.91086	-1.69886
18.15331	-3.86691	-1.69886
18.15749	-3.82297	-1.69886
18.16193	-3.77902	-1.69886
18.16615	-3.73507	-1.69886
18.17034	-3.73507	-1.69886
18.17453	-3.69113	-1.69886
18.17872	-3.64718	-1.69886
18.18291	-3.58127	-1.69886
18.18710	-3.53732	-1.69886
18.19162	-3.49338	-1.69886
18.19594	-3.44943	-1.69886
18.20015	-3.44943	-1.69886
18.20434	-3.40548	-1.69886
18.20853	-3.36154	-1.69886
18.21272	-3.29562	-1.69886
18.21691	-3.25168	-1.69886
18.22110	-3.25168	-1.69886
18.22541	-3.18576	-1.69886
18.22962	-3.14181	-1.69886
18.23381	-3.09787	-1.69886
18.23801	-3.00998	-1.69886
18.24231	-2.96603	-1.69886
18.24650	-2.96603	-1.69886
18.25069	-2.92209	-1.69886
18.25513	-2.85617	-1.69886
18.25935	-2.79025	-1.69886
18.26355	-2.72433	-1.69886
18.26774	-2.68039	-1.69886
18.27193	-2.63644	-1.69886
18.27612	-2.63644	-1.69886
18.28031	-2.57052	-1.69886
18.28459	-2.50461	-1.69886
18.28888	-2.43869	-1.69886
18.29307	-2.37277	-1.69886
18.29726	-2.32882	-1.69886
18.30145	-2.32882	-1.69886
18.30563	-2.26291	-1.69886
18.30982	-2.19699	-1.69886
18.31400	-2.13107	-1.69886
18.31830	-2.06515	-1.69886
18.32251	-2.02121	-1.69886
18.32670	-2.02121	-1.69886
18.33088	-1.93332	-1.69886
18.33507	-1.88937	-1.69886
18.33925	-1.80148	-1.69886
18.34354	-1.75754	-1.69886
18.34779	-1.66964	-1.69886
18.35206	-1.66964	-1.69886
18.35626	-1.60373	-1.69886
18.36045	-1.55978	-1.69886
18.36463	-1.49386	-1.69886
18.36881	-1.40597	-1.69886
18.37300	-1.34006	-1.69886
18.37718	-1.27414	-1.69886
18.38148	-1.27414	-1.69886
18.38569	-1.20822	-1.69886
18.38987	-1.14230	-1.69886
18.39406	-1.07638	-1.69886
18.39825	-1.01047	-1.69886
18.40243	-0.94455	-1.69886
18.40661	-0.94455	-1.69886
18.41087	-0.85666	-1.69886
18.41514	-0.79074	-1.69886
18.41934	-0.70285	-1.69886
18.42353	-0.63693	-1.69886
18.42772	-0.57101	-1.69886
18.43190	-0.57101	-1.69886
18.43608	-0.50509	-1.69886
18.44027	-0.41720	-1.69886
18.44467	-0.37326	-1.69886
18.44887	-0.28537	-1.69886
18.45306	-0.21945	-1.69886
18.45724	-0.15353	-1.69886
18.46143	-0.15353	-1.69886
18.46561	-0.06564	-1.69886
18.46980	0.00028	-1.69886
18.47424	0.08817	-1.69886
18.47846	0.15409	-1.69886
18.48265	0.24198	-1.69886
18.48684	0.24198	-1.69886
18.49105	0.30789	-1.69886
18.49526	0.37381	-1.69886
18.49946	0.46170	-1.69886
18.50373	0.52762	-1.69886
18.50803	0.61551	-1.69886
18.51223	0.61551	-1.69886
18.51642	0.68143	-1.69886
18.52062	0.76932	-1.69886
18.52482	0.83524	-1.69886
18.52903	0.87918	-1.69886
18.53322	0.96707	-1.69886
18.53755	0.96707	-1.69886
18.54176	1.03299	-1.69886
18.54607	1.12088	-1.69886
18.55026	1.20877	-1.69886
18.55445	1.27469	-1.69886
18.55867	1.34061	-1.69886
18.56287	1.34061	-1.69886
18.56735	1.47244	-1.69886
18.57157	1.47244	-1.69886
18.57576	1.56034	-1.69886
18.57996	1.62625	-1.69886
18.58414	1.71414	-1.69886
18.58833	1.78006	-1.69886
18.59251	1.78006	-1.69886
18.59677	1.86795	-1.69886
18.60104	1.93387	-1.69886
18.60524	1.99979	-1.69886
18.60943	2.08768	-1.69886
18.61361	2.15360	-1.69886
18.61779	2.21952	-1.69886
18.62198	2.21952	-1.69886
18.62616	2.28543	-1.69886
18.63046	2.35135	-1.69886
18.63467	2.43924	-1.69886
18.63886	2.50516	-1.69886
18.64304	2.50516	-1.69886
18.64734	2.57108	-1.69886
18.65152	2.65897	-1.69886
18.65571	2.70291	-1.69886
18.66015	2.76883	-1.69886
18.66436	2.85672	-1.69886
18.66856	2.92264	-1.69886
18.67275	2.92264	-1.69886
18.67694	2.98856	-1.69886
18.68113	3.05448	-1.69886
18.68532	3.12039	-1.69886
18.68958	3.20828	-1.69886
18.69388	3.27420	-1.69886
18.69808	3.34012	-1.69886
18.70227	3.34012	-1.69886
18.70646	3.38407	-1.69886
18.71066	3.47196	-1.69886
18.71485	3.53787	-1.69886
18.71904	3.60379	-1.69886
18.72337	3.66971	-1.69886
18.72758	3.66971	-1.69886
18.73177	3.73563	-1.69886
18.73597	3.80155	-1.69886
18.74016	3.86746	-1.69886
18.74435	3.93338	-1.69886
18.74865	3.93338	-1.69886
18.75308	3.99930	-1.69886
18.75729	4.06522	-1.69886
18.76148	4.13114	-1.69886
18.76567	4.19705	-1.69886
18.76986	4.26297	-1.69886
18.77405	4.26297	-1.69886
18.77824	4.30692	-1.69886
18.78250	4.37284	-1.69886
18.78679	4.41678	-1.69886
18.79100	4.48270	-1.69886
18.79520	4.54862	-1.69886
18.79939	4.61453	-1.69886
18.80358	4.61453	-1.69886
18.80776	4.65848	-1.69886
18.81194	4.72440	-1.69886
18.81625	4.79032	-1.69886
18.82045	4.85623	-1.69886
18.82463	4.90018	-1.69886
18.82882	4.94412	-1.69886
18.83300	4.94412	-1.69886
18.83719	5.01004	-1.69886
18.84137	5.05399	-1.69886
18.84563	5.11991	-1.69886
18.85000	5.18582	-1.69886
18.85419	5.22977	-1.69886
18.85837	5.22977	-1.69886
18.86256	5.27371	-1.69886
18.86674	5.33963	-1.69886
18.87092	5.38358	-1.69886
18.87511	5.42752	-1.69886
18.87937	5.49344	-1.69886
18.88357	5.49344	-1.69886
18.88776	5.53739	-1.69886
18.89195	5.58133	-1.69886
18.89613	5.64725	-1.69886
18.90031	5.69119	-1.69886
18.90450	5.73514	-1.69886
18.90875	5.77909	-1.69886
18.91302	5.77909	-1.69886
18.91722	5.82303	-1.69886
18.92141	5.86698	-1.69886
18.92559	5.91092	-1.69886
18.92977	5.95487	-1.69886
18.93397	5.95487	-1.69886
18.93815	6.02078	-1.69886
18.94245	6.06473	-1.69886
18.94665	6.10868	-1.69886
18.95094	6.15262	-1.69886
18.95513	6.17459	-1.69886
18.95932	6.21854	-1.69886
18.96350	6.21854	-1.69886
18.96769	6.26248	-1.69886
18.97212	6.30643	-1.69886
18.97633	6.35037	-1.69886
18.98052	6.39432	-1.69886
18.98471	6.43827	-1.69886
18.98890	6.43827	-1.69886
18.99309	6.46024	-1.69886
18.99728	6.50418	-1.69886
19.00156	6.54813	-1.69886
19.00586	6.57010	-1.69886
19.01007	6.61405	-1.69886
19.01426	6.61405	-1.69886
19.01845	6.65799	-1.69886
19.02264	6.70194	-1.69886
19.02683	6.72391	-1.69886
19.03102	6.76786	-1.69886
19.03536	6.76786	-1.69886
19.03957	6.81180	-1.69886
19.04376	6.81180	-1.69886
19.04795	6.85575	-1.69886
19.05226	6.87772	-1.69886
19.05645	6.89969	-1.69886
19.06066	6.94364	-1.69886
19.06513	6.96561	-1.69886
19.06934	6.96561	-1.69886
19.07354	6.98758	-1.69886
19.07773	7.00955	-1.69886
19.08192	7.05350	-1.69886
19.08611	7.07547	-1.69886
19.09029	7.09744	-1.69886
19.09455	7.09744	-1.69886
19.09883	7.11942	-1.69886
19.10302	7.14139	-1.69886
19.10722	7.16336	-1.69886
19.11141	7.18534	-1.69886
19.11560	7.20731	-1.69886
19.11979	7.20731	-1.69886
19.12397	7.22928	-1.69886
19.12828	7.25125	-1.69886
19.13248	7.27323	-1.69886
19.13667	7.27323	-1.69886
19.14086	7.29520	-1.69886
19.14504	7.31717	-1.69886
19.14923	7.31717	-1.69886
19.15351	7.33914	-1.69886
19.15796	7.36112	-1.69886
19.16218	7.38309	-1.69886
19.16637	7.38309	-1.69886
19.17057	7.40506	-1.69886
19.17476	7.40506	-1.69886
19.17895	7.40506	-1.69886
19.18315	7.42703	-1.69886
19.18741	7.42703	-1.69886
19.19171	7.44901	-1.69886
19.19593	7.44901	-1.69886
19.20012	7.44901	-1.69886
19.20431	7.44901	-1.69886
19.20850	7.47098	-1.69886
19.21269	7.47098	-1.69886
19.21688	7.49295	-1.69886
19.22119	7.49295	-1.69886
19.22540	7.49295	-1.69886
19.22959	7.49295	-1.69886
19.23378	7.49295	-1.69886
19.23798	7.51493	-1.69886
19.24217	7.51493	-1.69886
19.24636	7.51493	-1.69886
19.25064	7.51493	-1.69886
19.25504	7.51493	-1.69886
19.25926	7.51493	-1.69886
19.26346	7.51493	-1.69886
19.26766	7.51493	-1.69886
19.27186	7.51493	-1.69886
19.27606	7.51493	-1.69886
19.28033	7.51493	-1.69886
19.28463	7.51493	-1.69886
19.28883	7.49295	-1.69886
19.29301	7.51493	-1.69886
19.29720	7.49295	-1.69886
19.30138	7.49295	-1.69886
19.30557	7.49295	-1.69886
19.30975	7.49295	-1.69886
19.31405	7.49295	-1.69886
19.31826	7.49295	-1.69886
19.32245	7.47098	-1.69886
19.32664	7.47098	-1.69886
19.33082	7.47098	-1.69886
19.33500	7.44901	-1.69886
19.33920	7.44901	-1.69886
19.34345	7.44901	-1.69886
19.34773	7.42703	-1.69886
19.35194	7.40506	-1.69886
19.35624	7.40506	-1.69886
19.36043	7.40506	-1.69886
19.36461	7.38309	-1.69886
19.36880	7.36112	-1.69886
19.37299	7.36112	-1.69886
19.37731	7.33914	-1.69886
19.38152	7.31717	-1.69886
19.38571	7.29520	-1.69886
19.38989	7.29520	-1.69886
19.39408	7.29520	-1.69886
19.39826	7.27323	-1.69886
19.40244	7.25125	-1.69886
19.40670	7.22928	-1.69886
19.41097	7.22928	-1.69886
19.41518	7.20731	-1.69886
19.41936	7.18534	-1.69886
19.42355	7.16336	-1.69886
19.42774	7.14139	-1.69886
19.43192	7.11942	-1.69886
19.43610	7.09744	-1.69886
19.44040	7.09744	-1.69886
19.44460	7.07547	-1.69886
19.44879	7.05350	-1.69886
19.45298	7.03153	-1.69886
19.45726	7.00955	-1.69886
19.46145	7.00955	-1.69886
19.46563	6.94364	-1.69886
19.47008	6.94364	-1.69886
19.47429	6.92166	-1.69886
19.47848	6.89969	-1.69886
19.48268	6.87772	-1.69886
19.48687	6.83377	-1.69886
19.49108	6.83377	-1.69886
19.49527	6.81180	-1.69886
19.49955	6.78983	-1.69886
19.50384	6.74588	-1.69886
19.50805	6.72391	-1.69886
19.51224	6.67996	-1.69886
19.51643	6.67996	-1.69886
19.52062	6.65799	-1.69886
19.52482	6.61405	-1.69886
19.52901	6.59207	-1.69886
19.53332	6.57010	-1.69886
19.53753	6.52616	-1.69886
19.54172	6.52616	-1.69886
19.54591	6.50418	-1.69886
19.55010	6.46024	-1.69886
19.55429	6.43827	-1.69886
19.55859	6.39432	-1.69886
19.56289	6.35037	-1.69886
19.56718	6.32840	-1.69886
19.57139	6.32840	-1.69886
19.57557	6.28446	-1.69886
19.57976	6.24051	-1.69886
19.58394	6.21854	-1.69886
19.58813	6.17459	-1.69886
19.59231	6.15262	-1.69886
19.59661	6.10868	-1.69886
19.60082	6.10868	-1.69886
19.60501	6.06473	-1.69886
19.60919	6.04276	-1.69886
19.61338	5.99881	-1.69886
19.61757	5.95487	-1.69886
19.62175	5.95487	-1.69886
19.62600	5.91092	-1.69886
19.63029	5.86698	-1.69886
19.63449	5.84500	-1.69886
19.63868	5.80106	-1.69886
19.64287	5.77909	-1.69886
19.64705	5.73514	-1.69886
19.65124	5.73514	-1.69886
19.65543	5.69119	-1.69886
19.65983	5.64725	-1.69886
19.66403	5.60330	-1.69886
19.66821	5.55936	-1.69886
19.67240	5.55936	-1.69886
19.67659	5.49344	-1.69886
19.68077	5.49344	-1.69886
19.68495	5.44950	-1.69886
19.68938	5.40555	-1.69886
19.69360	5.36161	-1.69886
19.69779	5.31766	-1.69886
19.70198	5.31766	-1.69886
19.70617	5.27371	-1.69886
19.71036	5.22977	-1.69886
19.71455	5.18582	-1.69886
19.71882	5.14188	-1.69886
19.72313	5.11991	-1.69886
19.72733	5.05399	-1.69886
19.73152	5.05399	-1.69886
19.73572	5.01004	-1.69886
19.73991	4.96610	-1.69886
19.74410	4.94412	-1.69886
19.74829	4.87821	-1.69886
19.75260	4.83426	-1.69886
19.75680	4.83426	-1.69886
19.76111	4.79032	-1.69886
19.76530	4.74637	-1.69886
19.76949	4.70243	-1.69886
19.77368	4.65848	-1.69886
19.77787	4.65848	-1.69886
19.78214	4.61453	-1.69886
19.78641	4.57059	-1.69886
19.79060	4.50467	-1.69886
19.79479	4.46073	-1.69886
19.79898	4.41678	-1.69886
19.80318	4.41678	-1.69886
19.80737	4.37284	-1.69886
19.81155	4.35086	-1.69886
19.81585	4.28494	-1.69886
19.82005	4.24100	-1.69886
19.82423	4.19705	-1.69886
19.82842	4.15311	-1.69886
19.83260	4.15311	-1.69886
19.83679	4.08719	-1.69886
19.84097	4.04325	-1.69886
19.84523	3.99930	-1.69886
19.84949	3.95536	-1.69886
19.85369	3.91141	-1.69886
19.85787	3.86746	-1.69886
19.86216	3.86746	-1.69886
19.86634	3.82352	-1.69886
19.87053	3.77957	-1.69886
19.87471	3.71366	-1.69886
19.87900	3.66971	-1.69886
19.88323	3.66971	-1.69886
19.88741	3.62577	-1.69886
19.89160	3.58182	-1.69886
19.89578	3.53787	-1.69886
19.89996	3.49393	-1.69886
19.90415	3.44998	-1.69886
19.90839	3.40604	-1.69886
19.91272	3.40604	-1.69886
19.91695	3.34012	-1.69886
19.92116	3.29618	-1.69886
19.92537	3.25223	-1.69886
19.92959	3.20828	-1.69886
19.93381	3.16434	-1.69886
19.93941	3.12039	-1.69886
19.94370	3.07645	-1.69886
19.94790	3.03250	-1.69886
19.95208	3.03250	-1.69886
19.95627	2.98856	-1.69886
19.96046	2.94461	-1.69886
19.96474	2.87869	-1.69886
19.96898	2.85672	-1.69886
19.97326	2.85672	-1.69886
19.97746	2.81278	-1.69886
19.98164	2.76883	-1.69886
19.98583	2.72489	-1.69886
19.99001	2.68094	-1.69886
19.99420	2.63700	-1.69886
19.99838	2.59305	-1.69886
20.00280	2.59305	-1.69886
20.00701	2.54911	-1.69886
20.01124	2.50516	-1.69886
20.01543	2.46121	-1.69886
20.01963	2.41727	-1.69886
20.02384	2.37332	-1.69886
20.02803	2.37332	-1.69886
20.03231	2.32938	-1.69886
20.03661	2.28543	-1.69886
20.04082	2.26346	-1.69886
20.04502	2.21952	-1.69886
20.04922	2.21952	-1.69886
20.05341	2.17557	-1.69886
20.05760	2.13162	-1.69886
20.06181	2.08768	-1.69886
20.06626	2.06571	-1.69886
20.07047	2.02176	-1.69886
20.07466	1.97782	-1.69886
20.07886	1.97782	-1.69886
20.08305	1.95584	-1.69886
20.08725	1.91190	-1.69886
20.09144	1.86795	-1.69886
20.09587	1.84598	-1.69886
20.10008	1.78006	-1.69886
20.10428	1.75809	-1.69886
20.10846	1.75809	-1.69886
20.11267	1.73612	-1.69886
20.11686	1.69217	-1.69886
20.12105	1.64823	-1.69886
20.12531	1.62625	-1.69886
20.12958	1.58231	-1.69886
20.13379	1.58231	-1.69886
20.13797	1.56034	-1.69886
20.14216	1.51639	-1.69886
20.14635	1.49442	-1.69886
20.15054	1.47244	-1.69886
20.15473	1.42850	-1.69886
20.15905	1.40653	-1.69886
20.16327	1.40653	-1.69886
20.16756	1.36258	-1.69886
20.17175	1.34061	-1.69886
20.17594	1.31864	-1.69886
20.18012	1.27469	-1.69886
20.18430	1.27469	-1.69886
20.18877	1.23075	-1.69886
20.19300	1.23075	-1.69886
20.19720	1.18680	-1.69886
20.20139	1.16483	-1.69886
20.20558	1.14286	-1.69886
20.20982	1.09891	-1.69886
20.21402	1.09891	-1.69886
20.21831	1.07694	-1.69886
20.22260	1.05496	-1.69886
20.22681	1.03299	-1.69886
20.23101	1.01102	-1.69886
20.23521	0.98905	-1.69886
20.23941	0.96707	-1.69886
20.24360	0.96707	-1.69886
20.24779	0.92313	-1.69886
20.25210	0.90116	-1.69886
20.25639	0.87918	-1.69886
20.26062	0.85721	-1.69886
20.26485	0.83524	-1.69886
20.26917	0.83524	-1.69886
20.27336	0.81327	-1.69886
20.27755	0.79129	-1.69886
20.28202	0.76932	-1.69886
20.28626	0.74735	-1.69886
20.29046	0.72537	-1.69886
20.29465	0.72537	-1.69886
20.29884	0.70340	-1.69886
20.30304	0.68143	-1.69886
20.30724	0.65946	-1.69886
20.31153	0.65946	-1.69886
20.31583	0.63748	-1.69886
20.32003	0.61551	-1.69886
20.32423	0.61551	-1.69886
20.32843	0.59354	-1.69886
20.33263	0.57157	-1.69886
20.33682	0.54959	-1.69886
20.34101	0.54959	-1.69886
20.34530	0.52762	-1.69886
20.34951	0.52762	-1.69886
20.35370	0.52762	-1.69886
20.35789	0.50565	-1.69886
20.36207	0.48368	-1.69886
20.36625	0.48368	-1.69886
20.37054	0.46170	-1.69886
20.37498	0.43973	-1.69886
20.37925	0.43973	-1.69886
20.38345	0.43973	-1.69886
20.38764	0.41776	-1.69886
20.39182	0.41776	-1.69886
20.39601	0.39578	-1.69886
20.40020	0.39578	-1.69886
20.40445	0.37381	-1.69886
20.40873	0.37381	-1.69886
20.41294	0.37381	-1.69886
20.41714	0.35184	-1.69886
20.42133	0.32987	-1.69886
20.42552	0.32987	-1.69886
20.42971	0.32987	-1.69886
20.43389	0.32987	-1.69886
20.43819	0.30789	-1.69886
20.44240	0.30789	-1.69886
20.44658	0.30789	-1.69886
20.45077	0.28592	-1.69886
20.45496	0.26395	-1.69886
20.45916	0.26395	-1.69886
20.46334	0.26395	-1.69886
20.46779	0.26395	-1.69886
20.47212	0.26395	-1.69886
20.47631	0.24198	-1.69886
20.48050	0.24198	-1.69886
20.48469	0.24198	-1.69886
20.48889	0.24198	-1.69886
20.49310	0.24198	-1.69886
20.49739	0.24198	-1.69886
20.50167	0.24198	-1.69886
20.50587	0.22000	-1.69886
20.51010	0.24198	-1.69886
20.51430	0.24198	-1.69886
20.51850	0.22000	-1.69886
20.52270	0.22000	-1.69886
20.52697	0.22000	-1.69886
20.53129	0.22000	-1.69886
20.53550	0.22000	-1.69886
20.53969	0.22000	-1.69886
20.54388	0.22000	-1.69886
20.54807	0.22000	-1.69886
20.55225	0.22000	-1.69886
20.55644	0.22000	-1.69886
20.56076	0.22000	-1.69886
20.56497	0.22000	-1.69886
20.56916	0.22000	-1.69886
20.57345	0.22000	-1.69886
20.57763	0.24198	-1.69886
20.58182	0.22000	-1.69886
20.58600	0.24198	-1.69886
20.59043	0.24198	-1.69886
20.59465	0.24198	-1.69886
20.59884	0.24198	-1.69886
20.60303	0.26395	-1.69886
20.60723	0.26395	-1.69886
20.61144	0.26395	-1.69886
20.61565	0.28592	-1.69886
20.61993	0.28592	-1.69886
20.62423	0.28592	-1.69886
20.62844	0.28592	-1.69886
20.63263	0.30789	-1.69886
20.63682	0.30789	-1.69886
20.64101	0.30789	-1.69886
20.64520	0.32987	-1.69886
20.64940	0.35184	-1.69886
20.65372	0.35184	-1.69886
20.65793	0.37381	-1.69886
20.66212	0.37381	-1.69886
20.66631	0.39578	-1.69886
20.67050	0.39578	-1.69886
20.67481	0.39578	-1.69886
20.67900	0.41776	-1.69886
20.68345	0.43973	-1.69886
20.68766	0.43973	-1.69886
20.69185	0.46170	-1.69886
20.69604	0.46170	-1.69886
20.70023	0.46170	-1.69886
20.70443	0.48368	-1.69886
20.70862	0.50565	-1.69886
20.71292	0.52762	-1.69886
20.71722	0.54959	-1.69886
20.72142	0.54959	-1.69886
20.72561	0.54959	-1.69886
20.72980	0.57157	-1.69886
20.73398	0.59354	-1.69886
20.73818	0.61551	-1.69886
20.74236	0.61551	-1.69886
20.74666	0.63748	-1.69886
20.75088	0.65946	-1.69886
20.75507	0.65946	-1.69886
20.75925	0.68143	-1.69886
20.76344	0.68143	-1.69886
20.76762	0.70340	-1.69886
20.77181	0.72537	-1.69886
20.77617	0.72537	-1.69886
20.78044	0.74735	-1.69886
20.78464	0.76932	-1.69886
20.78883	0.79129	-1.69886
20.79301	0.81327	-1.69886
20.79720	0.85721	-1.69886
20.80138	0.85721	-1.69886
20.80556	0.85721	-1.69886
20.80986	0.87918	-1.69886
20.81409	0.90116	-1.69886
20.81829	0.92313	-1.69886
20.82248	0.94510	-1.69886
20.82667	0.94510	-1.69886
20.83086	0.96707	-1.69886
20.83504	0.98905	-1.69886
20.83949	1.01102	-1.69886
20.84371	1.03299	-1.69886
20.84790	1.05496	-1.69886
20.85210	1.05496	-1.69886
20.85629	1.07694	-1.69886
20.86048	1.09891	-1.69886
20.86467	1.12088	-1.69886
20.86894	1.14286	-1.69886
20.87324	1.16483	-1.69886
20.87755	1.18680	-1.69886
20.88175	1.18680	-1.69886
20.88594	1.20877	-1.69886
20.89013	1.23075	-1.69886
20.89432	1.25272	-1.69886
20.89851	1.27469	-1.69886
20.90282	1.29666	-1.69886
20.90703	1.29666	-1.69886
20.91124	1.34061	-1.69886
20.91545	1.36258	-1.69886
20.91965	1.38455	-1.69886
20.92385	1.40653	-1.69886
20.92804	1.42850	-1.69886
20.93233	1.45047	-1.69886
20.93661	1.45047	-1.69886
20.94081	1.47244	-1.69886
20.94501	1.49442	-1.69886
20.94922	1.51639	-1.69886
20.95342	1.53836	-1.69886
20.95761	1.56034	-1.69886
20.96180	1.58231	-1.69886
20.96612	1.58231	-1.69886
20.97032	1.60428	-1.69886
20.97451	1.62625	-1.69886
20.97880	1.64823	-1.69886
20.98299	1.67020	-1.69886
20.98718	1.67020	-1.69886
20.99137	1.69217	-1.69886
20.99581	1.73612	-1.69886
21.00002	1.75809	-1.69886
21.00422	1.78006	-1.69886
21.00841	1.80203	-1.69886
21.01262	1.82401	-1.69886
21.01682	1.82401	-1.69886
21.02101	1.84598	-1.69886
21.02528	1.86795	-1.69886
21.02959	1.88993	-1.69886
21.03381	1.91190	-1.69886
21.03801	1.95584	-1.69886
21.04221	1.95584	-1.69886
21.04640	1.95584	-1.69886
21.05059	1.99979	-1.69886
21.05479	1.99979	-1.69886
21.05918	2.04373	-1.69886
21.06342	2.06571	-1.69886
21.06764	2.06571	-1.69886
21.07186	2.08768	-1.69886
21.07607	2.10965	-1.69886
21.08043	2.13162	-1.69886
21.08466	2.15360	-1.69886
21.08924	2.17557	-1.69886
21.09347	2.17557	-1.69886
21.09766	2.17557	-1.69886
21.10186	2.21952	-1.69886
21.10606	2.24149	-1.69886
21.11025	2.26346	-1.69886
21.11444	2.28543	-1.69886
21.11871	2.30741	-1.69886
21.12299	2.30741	-1.69886
21.12719	2.32938	-1.69886
21.13139	2.32938	-1.69886
21.13558	2.35135	-1.69886
21.13977	2.39530	-1.69886
21.14396	2.39530	-1.69886
21.14815	2.41727	-1.69886
21.15246	2.41727	-1.69886
21.15665	2.43924	-1.69886
21.16084	2.46121	-1.69886
21.16503	2.48319	-1.69886
21.16921	2.50516	-1.69886
21.17340	2.52713	-1.69886
21.17758	2.52713	-1.69886
21.18206	2.54911	-1.69886
21.18627	2.57108	-1.69886
21.19046	2.59305	-1.69886
21.19467	2.61502	-1.69886
21.19887	2.63700	-1.69886
21.20305	2.63700	-1.69886
21.20724	2.65897	-1.69886
21.21150	2.68094	-1.69886
21.21579	2.68094	-1.69886
21.21999	2.70291	-1.69886
21.22417	2.72489	-1.69886
21.22836	2.74686	-1.69886
21.23254	2.74686	-1.69886
21.23673	2.76883	-1.69886
21.24091	2.79080	-1.69886
21.24521	2.79080	-1.69886
21.24942	2.81278	-1.69886
21.25362	2.83475	-1.69886
21.25780	2.85672	-1.69886
21.26198	2.85672	-1.69886
21.26617	2.87869	-1.69886
21.27035	2.90067	-1.69886
21.27462	2.90067	-1.69886
21.27889	2.92264	-1.69886
21.28321	2.92264	-1.69886
21.28740	2.94461	-1.69886
21.29158	2.96659	-1.69886
21.29577	2.98856	-1.69886
21.29995	2.98856	-1.69886
21.30414	3.01053	-1.69886
21.30844	3.01053	-1.69886
21.31264	3.03250	-1.69886
21.31682	3.05448	-1.69886
21.32101	3.07645	-1.69886
21.32519	3.07645	-1.69886
21.32937	3.09842	-1.69886
21.33356	3.09842	-1.69886
21.33781	3.12039	-1.69886
21.34208	3.14237	-1.69886
21.34628	3.16434	-1.69886
21.35046	3.16434	-1.69886
21.35465	3.18631	-1.69886
21.35883	3.18631	-1.69886
21.36302	3.20828	-1.69886
21.36721	3.20828	-1.69886
21.37151	3.23026	-1.69886
21.37571	3.25223	-1.69886
21.37990	3.25223	-1.69886
21.38419	3.27420	-1.69886
21.38837	3.27420	-1.69886
21.39255	3.29618	-1.69886
21.39674	3.31815	-1.69886
21.40110	3.34012	-1.69886
21.40533	3.34012	-1.69886
21.40951	3.36209	-1.69886
21.41370	3.36209	-1.69886
21.41788	3.38407	-1.69886
21.42206	3.38407	-1.69886
21.42625	3.40604	-1.69886
21.43049	3.40604	-1.69886
21.43477	3.42801	-1.69886
21.43897	3.44998	-1.69886
21.44318	3.44998	-1.69886
21.44736	3.44998	-1.69886
21.45155	3.47196	-1.69886
21.45573	3.49393	-1.69886
21.45991	3.49393	-1.69886
21.46421	3.49393	-1.69886
21.46842	3.51590	-1.69886
21.47260	3.51590	-1.69886
21.47679	3.53787	-1.69886
21.48097	3.53787	-1.69886
21.48526	3.55985	-1.69886
21.48944	3.55985	-1.69886
21.49369	3.55985	-1.69886
21.49797	3.58182	-1.69886
21.50216	3.58182	-1.69886
21.50635	3.60379	-1.69886
21.51053	3.62577	-1.69886
21.51472	3.62577	-1.69886
21.51890	3.64774	-1.69886
21.52309	3.64774	-1.69886
21.52737	3.64774	-1.69886
21.53158	3.66971	-1.69886
21.53576	3.66971	-1.69886
21.53994	3.66971	-1.69886
21.54413	3.66971	-1.69886
21.54831	3.69168	-1.69886
21.55249	3.69168	-1.69886
21.55675	3.69168	-1.69886
21.56102	3.71366	-1.69886
21.56522	3.71366	-1.69886
21.56940	3.71366	-1.69886
21.57359	3.73563	-1.69886
21.57777	3.73563	-1.69886
21.58195	3.75760	-1.69886
21.58624	3.75760	-1.69886
21.59053	3.75760	-1.69886
21.59474	3.75760	-1.69886
21.59892	3.77957	-1.69886
21.60311	3.77957	-1.69886
21.60725	3.77957	-1.69886
21.61143	3.77957	-1.69886
21.61561	3.80155	-1.69886
21.61986	3.80155	-1.69886
21.62414	3.80155	-1.69886
21.62833	3.80155	-1.69886
21.63251	3.82352	-1.69886
21.63670	3.82352	-1.69886
21.64088	3.82352	-1.69886
21.64506	3.82352	-1.69886
21.64925	3.82352	-1.69886
21.65354	3.82352	-1.69886
21.65775	3.82352	-1.69886
21.66194	3.84549	-1.69886
21.66612	3.84549	-1.69886
21.67031	3.84549	-1.69886
21.67449	3.84549	-1.69886
21.67867	3.84549	-1.69886
21.68292	3.84549	-1.69886
21.68731	3.84549	-1.69886
21.69151	3.84549	-1.69886
21.69569	3.84549	-1.69886
21.69988	3.84549	-1.69886
21.70406	3.86746	-1.69886
21.70825	3.86746	-1.69886
21.71243	3.86746	-1.69886
21.71673	3.86746	-1.69886
21.72093	3.86746	-1.69886
21.72511	3.86746	-1.69886
21.72930	3.86746	-1.69886
21.73348	3.86746	-1.69886
21.73767	3.86746	-1.69886
21.74185	3.86746	-1.69886
21.74609	3.86746	-1.69886
21.75036	3.86746	-1.69886
21.75456	3.86746	-1.69886
21.75874	3.86746	-1.69886
21.76293	3.86746	-1.69886
21.76712	3.86746	-1.69886
21.77131	3.86746	-1.69886
21.77549	3.86746	-1.69886
21.77979	3.86746	-1.69886
21.78399	3.86746	-1.69886
21.78828	3.86746	-1.69886
21.79246	3.86746	-1.69886
21.79664	3.84549	-1.69886
21.80082	3.84549	-1.69886
21.80501	3.84549	-1.69886
21.80938	3.84549	-1.69886
21.81360	3.84549	-1.69886
21.81779	3.84549	-1.69886
21.82197	3.84549	-1.69886
21.82615	3.82352	-1.69886
21.83034	3.82352	-1.69886
21.83452	3.82352	-1.69886
21.83875	3.82352	-1.69886
21.84304	3.82352	-1.69886
21.84724	3.82352	-1.69886
21.85143	3.82352	-1.69886
21.85561	3.80155	-1.69886
21.85980	3.80155	-1.69886
21.86398	3.80155	-1.69886
21.86816	3.77957	-1.69886
21.87252	3.77957	-1.69886
21.87675	3.77957	-1.69886
21.88093	3.77957	-1.69886
21.88512	3.75760	-1.69886
21.88940	3.75760	-1.69886
21.89359	3.75760	-1.69886
21.89777	3.75760	-1.69886
21.90201	3.73563	-1.69886
21.90629	3.71366	-1.69886
21.91049	3.71366	-1.69886
21.91467	3.71366	-1.69886
21.91886	3.71366	-1.69886
21.92304	3.71366	-1.69886
21.92723	3.69168	-1.69886
21.93141	3.69168	-1.69886
21.93577	3.69168	-1.69886
21.94000	3.66971	-1.69886
21.94418	3.64774	-1.69886
21.94837	3.66971	-1.69886
21.95255	3.64774	-1.69886
21.95674	3.62577	-1.69886
21.96093	3.62577	-1.69886
21.96517	3.62577	-1.69886
21.96946	3.60379	-1.69886
21.97365	3.58182	-1.69886
21.97784	3.58182	-1.69886
21.98202	3.58182	-1.69886
21.98621	3.58182	-1.69886
21.99050	3.58182	-1.69886
21.99468	3.55985	-1.69886
21.99898	3.53787	-1.69886
22.00319	3.51590	-1.69886
22.00737	3.51590	-1.69886
22.01156	3.49393	-1.69886
22.01574	3.49393	-1.69886
22.01993	3.49393	-1.69886
22.02411	3.47196	-1.69886
22.02836	3.47196	-1.69886
22.03263	3.44998	-1.69886
22.03683	3.44998	-1.69886
22.04102	3.44998	-1.69886
22.04520	3.42801	-1.69886
22.04939	3.42801	-1.69886
22.05358	3.40604	-1.69886
22.05776	3.40604	-1.69886
22.06206	3.38407	-1.69886
22.06627	3.38407	-1.69886
22.07046	3.36209	-1.69886
22.07464	3.36209	-1.69886
22.07883	3.34012	-1.69886
22.08301	3.34012	-1.69886
22.08720	3.31815	-1.69886
22.09157	3.31815	-1.69886
22.09586	3.29618	-1.69886
22.10007	3.29618	-1.69886
22.10427	3.27420	-1.69886
22.10846	3.25223	-1.69886
22.11264	3.25223	-1.69886
22.11683	3.25223	-1.69886
22.12101	3.23026	-1.69886
22.12532	3.23026	-1.69886
22.12952	3.20828	-1.69886
22.13370	3.20828	-1.69886
22.13790	3.18631	-1.69886
22.14208	3.18631	-1.69886
22.14627	3.16434	-1.69886
22.15045	3.16434	-1.69886
22.15471	3.14237	-1.69886
22.15898	3.14237	-1.69886
22.16320	3.12039	-1.69886
22.16738	3.12039	-1.69886
22.17157	3.12039	-1.69886
22.17575	3.09842	-1.69886
22.17994	3.07645	-1.69886
22.18412	3.07645	-1.69886
22.18842	3.05448	-1.69886
22.19277	3.05448	-1.69886
22.19696	3.03250	-1.69886
22.20115	3.03250	-1.69886
22.20533	3.03250	-1.69886
22.20952	3.01053	-1.69886
22.21370	3.01053	-1.69886
22.21808	2.98856	-1.69886
22.22233	2.96659	-1.69886
22.22653	2.96659	-1.69886
22.23074	2.96659	-1.69886
22.23495	2.94461	-1.69886
22.23917	2.94461	-1.69886
22.24338	2.92264	-1.69886
22.24830	2.92264	-1.69886
22.25260	2.90067	-1.69886
22.25681	2.90067	-1.69886
22.26103	2.90067	-1.69886
22.26524	2.87869	-1.69886
22.26944	2.85672	-1.69886
22.27365	2.85672	-1.69886
22.27952	2.85672	-1.69886
22.28381	2.83475	-1.69886
22.28801	2.83475	-1.69886
22.29221	2.81278	-1.69886
22.29651	2.81278	-1.69886
22.30070	2.79080	-1.69886
22.30489	2.79080	-1.69886
22.30916	2.79080	-1.69886
22.31348	2.76883	-1.69886
22.31770	2.74686	-1.69886
22.32190	2.74686	-1.69886
22.32610	2.74686	-1.69886
22.33030	2.74686	-1.69886
22.33449	2.72489	-1.69886
22.33868	2.72489	-1.69886
22.34298	2.72489	-1.69886
22.34721	2.70291	-1.69886
22.35139	2.70291	-1.69886
22.35558	2.68094	-1.69886
22.35977	2.68094	-1.69886
22.36396	2.65897	-1.69886
22.36814	2.65897	-1.69886
22.37240	2.65897	-1.69886
22.37667	2.65897	-1.69886
22.38087	2.63700	-1.69886
22.38505	2.63700	-1.69886
22.38924	2.61502	-1.69886
22.39342	2.61502	-1.69886
22.39771	2.61502	-1.69886
22.40189	2.61502	-1.69886
22.40619	2.61502	-1.69886
22.41040	2.59305	-1.69886
22.41461	2.59305	-1.69886
22.41880	2.57108	-1.69886
22.42299	2.57108	-1.69886
22.42719	2.57108	-1.69886
22.43138	2.57108	-1.69886
22.43583	2.54911	-1.69886
22.44004	2.54911	-1.69886
22.44424	2.54911	-1.69886
22.44843	2.54911	-1.69886
22.45262	2.52713	-1.69886
22.45681	2.52713	-1.69886
22.46100	2.50516	-1.69886
22.46527	2.50516	-1.69886
22.46957	2.50516	-1.69886
22.47377	2.50516	-1.69886
22.47796	2.50516	-1.69886
22.48215	2.50516	-1.69886
22.48634	2.50516	-1.69886
22.49054	2.48319	-1.69886
22.49474	2.48319	-1.69886
22.49922	2.48319	-1.69886
22.50343	2.46121	-1.69886
22.50762	2.46121	-1.69886
22.51181	2.48319	-1.69886
22.51601	2.46121	-1.69886
22.52021	2.46121	-1.69886
22.52440	2.46121	-1.69886
22.52887	2.46121	-1.69886
22.53309	2.46121	-1.69886
22.53728	2.46121	-1.69886
22.54148	2.46121	-1.69886
22.54568	2.46121	-1.69886
22.54987	2.46121	-1.69886
22.55406	2.43924	-1.69886
22.55834	2.46121	-1.69886
22.56264	2.46121	-1.69886
22.56685	2.43924	-1.69886
22.57105	2.43924	-1.69886
22.57525	2.46121	-1.69886
22.57944	2.46121	-1.69886
22.58362	2.46121	-1.69886
22.58790	2.43924	-1.69886
22.59219	2.46121	-1.69886
22.59638	2.43924	-1.69886
22.60068	2.46121	-1.69886
22.60486	2.46121	-1.69886
22.60905	2.46121	-1.69886
22.61326	2.43924	-1.69886
22.61745	2.46121	-1.69886
22.62176	2.43924	-1.69886
22.62598	2.46121	-1.69886
22.63016	2.46121	-1.69886
22.63435	2.46121	-1.69886
22.63854	2.46121	-1.69886
22.64272	2.46121	-1.69886
22.64691	2.46121	-1.69886
22.65118	2.46121	-1.69886
22.65546	2.46121	-1.69886
22.65966	2.46121	-1.69886
22.66385	2.48319	-1.69886
22.66804	2.48319	-1.69886
22.67223	2.48319	-1.69886
22.67641	2.48319	-1.69886
22.68059	2.48319	-1.69886
22.68489	2.48319	-1.69886
22.68909	2.48319	-1.69886
22.69328	2.48319	-1.69886
22.69747	2.50516	-1.69886
22.70175	2.50516	-1.69886
22.70594	2.50516	-1.69886
22.71012	2.50516	-1.69886
22.71458	2.50516	-1.69886
22.71880	2.50516	-1.69886
22.72300	2.52713	-1.69886
22.72720	2.52713	-1.69886
22.73139	2.52713	-1.69886
22.73559	2.52713	-1.69886
22.73978	2.54911	-1.69886
22.74406	2.54911	-1.69886
22.74838	2.54911	-1.69886
22.75258	2.54911	-1.69886
22.75678	2.54911	-1.69886
22.76097	2.57108	-1.69886
22.76516	2.57108	-1.69886
22.76935	2.59305	-1.69886
22.77354	2.59305	-1.69886
22.77786	2.59305	-1.69886
22.78207	2.59305	-1.69886
22.78627	2.59305	-1.69886
22.79046	2.61502	-1.69886
22.79465	2.61502	-1.69886
22.79884	2.61502	-1.69886
22.80316	2.61502	-1.69886
22.80760	2.63700	-1.69886
22.81181	2.63700	-1.69886
22.81603	2.65897	-1.69886
22.82023	2.65897	-1.69886
22.82443	2.65897	-1.69886
22.82862	2.65897	-1.69886
22.83281	2.68094	-1.69886
22.83707	2.68094	-1.69886
22.84133	2.68094	-1.69886
22.84553	2.70291	-1.69886
22.84971	2.70291	-1.69886
22.85390	2.70291	-1.69886
22.85809	2.72489	-1.69886
22.86227	2.72489	-1.69886
22.86645	2.74686	-1.69886
22.87076	2.74686	-1.69886
22.87496	2.74686	-1.69886
22.87916	2.74686	-1.69886
22.88335	2.76883	-1.69886
22.88753	2.76883	-1.69886
22.89172	2.79080	-1.69886
22.89590	2.79080	-1.69886
22.90016	2.79080	-1.69886
22.90453	2.81278	-1.69886
22.90872	2.81278	-1.69886
22.91291	2.83475	-1.69886
22.91711	2.83475	-1.69886
22.92130	2.85672	-1.69886
22.92550	2.85672	-1.69886
22.92968	2.85672	-1.69886
22.93399	2.85672	-1.69886
22.93819	2.87869	-1.69886
22.94238	2.90067	-1.69886
22.94656	2.90067	-1.69886
22.95075	2.92264	-1.69886
22.95493	2.92264	-1.69886
22.95912	2.92264	-1.69886
22.96338	2.94461	-1.69886
22.96766	2.94461	-1.69886
22.97185	2.96659	-1.69886
22.97604	2.96659	-1.69886
22.98023	2.98856	-1.69886
22.98441	2.98856	-1.69886
22.98859	3.01053	-1.69886
22.99278	3.01053	-1.69886
22.99708	3.03250	-1.69886
23.00128	3.03250	-1.69886
23.00557	3.05448	-1.69886
23.00976	3.05448	-1.69886
23.01396	3.05448	-1.69886
23.01815	3.07645	-1.69886
23.02234	3.07645	-1.69886
23.02679	3.09842	-1.69886
23.03100	3.09842	-1.69886
23.03522	3.09842	-1.69886
23.03942	3.12039	-1.69886
23.04362	3.14237	-1.69886
23.04782	3.14237	-1.69886
23.05201	3.14237	-1.69886
23.05632	3.16434	-1.69886
23.06062	3.16434	-1.69886
23.06485	3.16434	-1.69886
23.06906	3.16434	-1.69886
23.07326	3.18631	-1.69886
23.07745	3.20828	-1.69886
23.08164	3.20828	-1.69886
23.08583	3.23026	-1.69886
23.09015	3.23026	-1.69886
23.09438	3.23026	-1.69886
23.09859	3.25223	-1.69886
23.10280	3.25223	-1.69886
23.10710	3.27420	-1.69886
23.11126	3.27420	-1.69886
23.11547	3.27420	-1.69886
23.11996	3.27420	-1.69886
23.12418	3.29618	-1.69886
23.12837	3.29618	-1.69886
23.13257	3.31815	-1.69886
23.13676	3.31815	-1.69886
23.14095	3.31815	-1.69886
23.14514	3.31815	-1.69886
23.14941	3.34012	-1.69886
23.15368	3.34012	-1.69886
23.15788	3.36209	-1.69886
23.16207	3.36209	-1.69886
23.16626	3.36209	-1.69886
23.17045	3.38407	-1.69886
23.17463	3.38407	-1.69886
23.17882	3.38407	-1.69886
23.18314	3.38407	-1.69886
23.18735	3.40604	-1.69886
23.19153	3.40604	-1.69886
23.19572	3.40604	-1.69886
23.19991	3.40604	-1.69886
23.20410	3.42801	-1.69886
23.20839	3.42801	-1.69886
23.21285	3.44998	-1.69886
23.21709	3.44998	-1.69886
23.22129	3.44998	-1.69886
23.22549	3.44998	-1.69886
23.22969	3.44998	-1.69886
23.23388	3.47196	-1.69886
23.23807	3.47196	-1.69886
23.24233	3.47196	-1.69886
23.24663	3.47196	-1.69886
23.25083	3.47196	-1.69886
23.25503	3.49393	-1.69886
23.25923	3.49393	-1.69886
23.26342	3.49393	-1.69886
23.26763	3.51590	-1.69886
23.27183	3.51590	-1.69886
23.27615	3.51590	-1.69886
23.28036	3.51590	-1.69886
23.28456	3.51590	-1.69886
23.28875	3.51590	-1.69886
23.29294	3.53787	-1.69886
23.29713	3.53787	-1.69886
23.30132	3.53787	-1.69886
23.30559	3.53787	-1.69886
23.30998	3.53787	-1.69886
23.31421	3.53787	-1.69886
23.31841	3.55985	-1.69886
23.32260	3.55985	-1.69886
23.32680	3.55985	-1.69886
23.33099	3.55985	-1.69886
23.33525	3.55985	-1.69886
23.33954	3.55985	-1.69886
23.34375	3.58182	-1.69886
23.34794	3.58182	-1.69886
23.35213	3.58182	-1.69886
23.35632	3.58182	-1.69886
23.36051	3.58182	-1.69886
23.36470	3.58182	-1.69886
23.36900	3.58182	-1.69886
23.37321	3.58182	-1.69886
23.37740	3.58182	-1.69886
23.38158	3.60379	-1.69886
23.38577	3.60379	-1.69886
23.38995	3.60379	-1.69886
23.39414	3.60379	-1.69886
23.39839	3.60379	-1.69886
23.40266	3.60379	-1.69886
23.40685	3.60379	-1.69886
23.41116	3.60379	-1.69886
23.41536	3.62577	-1.69886
23.41956	3.62577	-1.69886
23.42375	3.62577	-1.69886
23.42794	3.62577	-1.69886
23.43225	3.62577	-1.69886
23.43645	3.62577	-1.69886
23.44064	3.62577	-1.69886
23.44482	3.62577	-1.69886
23.44901	3.64774	-1.69886
23.45319	3.62577	-1.69886
23.45737	3.62577	-1.69886
23.46163	3.62577	-1.69886
23.46590	3.64774	-1.69886
23.47009	3.64774	-1.69886
23.47429	3.64774	-1.69886
23.47847	3.64774	-1.69886
23.48266	3.64774	-1.69886
23.48684	3.64774	-1.69886
23.49102	3.64774	-1.69886
23.49536	3.64774	-1.69886
23.49958	3.64774	-1.69886
23.50377	3.64774	-1.69886
23.50797	3.64774	-1.69886
23.51226	3.64774	-1.69886
23.51646	3.64774	-1.69886
23.52065	3.64774	-1.69886
23.52512	3.64774	-1.69886
23.52934	3.64774	-1.69886
23.53353	3.64774	-1.69886
23.53773	3.64774	-1.69886
23.54192	3.64774	-1.69886
23.54611	3.64774	-1.69886
23.55030	3.64774	-1.69886
23.55456	3.64774	-1.69886
23.55885	3.66971	-1.69886
23.56308	3.64774	-1.69886
23.56727	3.64774	-1.69886
23.57146	3.64774	-1.69886
23.57565	3.64774	-1.69886
23.57984	3.64774	-1.69886
23.58403	3.64774	-1.69886
23.58835	3.64774	-1.69886
23.59256	3.64774	-1.69886
23.59675	3.64774	-1.69886
23.60094	3.64774	-1.69886
23.60513	3.64774	-1.69886
23.60932	3.64774	-1.69886
23.61362	3.64774	-1.69886
23.61808	3.64774	-1.69886
23.62230	3.64774	-1.69886
23.62649	3.64774	-1.69886
23.63068	3.64774	-1.69886
23.63488	3.64774	-1.69886
23.63907	3.64774	-1.69886
23.64325	3.64774	-1.69886
23.64752	3.64774	-1.69886
23.65181	3.62577	-1.69886
23.65601	3.62577	-1.69886
23.66020	3.64774	-1.69886
23.66439	3.62577	-1.69886
23.66859	3.62577	-1.69886
23.67278	3.62577	-1.69886
23.67696	3.62577	-1.69886
23.68126	3.62577	-1.69886
23.68546	3.62577	-1.69886
23.68965	3.62577	-1.69886
23.69384	3.62577	-1.69886
23.69802	3.62577	-1.69886
23.70221	3.62577	-1.69886
23.70639	3.62577	-1.69886
23.71064	3.60379	-1.69886
23.71505	3.60379	-1.69886
23.71925	3.60379	-1.69886
23.72344	3.60379	-1.69886
23.72762	3.60379	-1.69886
23.73181	3.60379	-1.69886
23.73599	3.60379	-1.69886
23.74019	3.58182	-1.69886
23.74450	3.58182	-1.69886
23.74870	3.58182	-1.69886
23.75289	3.58182	-1.69886
23.75708	3.58182	-1.69886
23.76126	3.58182	-1.69886
23.76545	3.58182	-1.69886
23.76963	3.58182	-1.69886
23.77388	3.55985	-1.69886
23.77816	3.55985	-1.69886
23.78236	3.55985	-1.69886
23.78657	3.55985	-1.69886
23.79076	3.55985	-1.69886
23.79495	3.53787	-1.69886
23.79915	3.53787	-1.69886
23.80334	3.53787	-1.69886
23.80764	3.53787	-1.69886
23.81184	3.53787	-1.69886
23.81617	3.51590	-1.69886
23.82036	3.51590	-1.69886
23.82455	3.51590	-1.69886
23.82874	3.51590	-1.69886
23.83293	3.51590	-1.69886
23.83737	3.49393	-1.69886
23.84159	3.49393	-1.69886
23.84578	3.49393	-1.69886
23.84997	3.49393	-1.69886
23.85417	3.47196	-1.69886
23.85836	3.47196	-1.69886
23.86255	3.47196	-1.69886
23.86682	3.47196	-1.69886
23.87113	3.44998	-1.69886
23.87533	3.44998	-1.69886
23.87953	3.44998	-1.69886
23.88372	3.44998	-1.69886
23.88791	3.44998	-1.69886
23.89210	3.42801	-1.69886
23.89629	3.42801	-1.69886
23.90060	3.42801	-1.69886
23.90480	3.40604	-1.69886
23.90899	3.40604	-1.69886
23.91318	3.40604	-1.69886
23.91752	3.40604	-1.69886
23.92172	3.38407	-1.69886
23.92591	3.38407	-1.69886
23.93034	3.38407	-1.69886
23.93455	3.36209	-1.69886
23.93875	3.36209	-1.69886
23.94294	3.36209	-1.69886
23.94714	3.34012	-1.69886
23.95133	3.34012	-1.69886
23.95552	3.34012	-1.69886
23.95978	3.31815	-1.69886
23.96406	3.31815	-1.69886
23.96826	3.31815	-1.69886
23.97244	3.29618	-1.69886
23.97664	3.29618	-1.69886
23.98082	3.27420	-1.69886
23.98500	3.27420	-1.69886
23.98919	3.27420	-1.69886
23.99349	3.27420	-1.69886
23.99770	3.27420	-1.69886
24.00189	3.25223	-1.69886
24.00607	3.25223	-1.69886
24.01025	3.23026	-1.69886
24.01444	3.23026	-1.69886
24.01876	3.23026	-1.69886
24.02303	3.20828	-1.69886
24.02732	3.18631	-1.69886
24.03153	3.18631	-1.69886
24.03574	3.18631	-1.69886
24.03993	3.16434	-1.69886
24.04412	3.16434	-1.69886
24.04830	3.16434	-1.69886
24.05259	3.16434	-1.69886
24.05688	3.14237	-1.69886
24.06108	3.14237	-1.69886
24.06529	3.12039	-1.69886
24.06948	3.12039	-1.69886
24.07368	3.12039	-1.69886
24.07787	3.12039	-1.69886
24.08206	3.09842	-1.69886
24.08636	3.09842	-1.69886
24.09060	3.07645	-1.69886
24.09479	3.07645	-1.69886
24.09898	3.07645	-1.69886
24.10318	3.07645	-1.69886
24.10736	3.05448	-1.69886
24.11155	3.05448	-1.69886
24.11583	3.03250	-1.69886
24.12022	3.03250	-1.69886
24.12442	3.03250	-1.69886
24.12860	3.03250	-1.69886
24.13279	3.01053	-1.69886
24.13697	3.01053	-1.69886
24.14116	3.01053	-1.69886
24.14534	3.01053	-1.69886
24.14964	2.98856	-1.69886
24.15386	2.96659	-1.69886
24.15806	2.96659	-1.69886
24.16224	2.96659	-1.69886
24.16643	2.94461	-1.69886
24.17062	2.94461	-1.69886
24.17481	2.94461	-1.69886
24.17931	2.94461	-1.69886
24.18353	2.92264	-1.69886
24.18773	2.92264	-1.69886
24.19192	2.92264	-1.69886
24.19611	2.90067	-1.69886
24.20031	2.90067	-1.69886
24.20451	2.90067	-1.69886
24.20882	2.87869	-1.69886
24.21312	2.87869	-1.69886
24.21735	2.87869	-1.69886
24.22166	2.85672	-1.69886
24.22586	2.85672	-1.69886
24.23006	2.85672	-1.69886
24.23425	2.85672	-1.69886
24.23844	2.83475	-1.69886
24.24275	2.83475	-1.69886
24.24696	2.81278	-1.69886
24.25118	2.81278	-1.69886
24.25537	2.81278	-1.69886
24.25956	2.81278	-1.69886
24.26375	2.79080	-1.69886
24.26798	2.81278	-1.69886
24.27243	2.79080	-1.69886
24.27665	2.79080	-1.69886
24.28085	2.76883	-1.69886
24.28504	2.76883	-1.69886
24.28923	2.76883	-1.69886
24.29342	2.76883	-1.69886
24.29762	2.74686	-1.69886
24.30188	2.74686	-1.69886
24.30618	2.74686	-1.69886
24.31038	2.72489	-1.69886
24.31457	2.72489	-1.69886
24.31877	2.72489	-1.69886
24.32307	2.72489	-1.69886
24.32725	2.70291	-1.69886
24.33144	2.70291	-1.69886
24.33574	2.70291	-1.69886
24.33994	2.70291	-1.69886
24.34413	2.70291	-1.69886
24.34831	2.70291	-1.69886
24.35250	2.68094	-1.69886
24.35668	2.68094	-1.69886
24.36086	2.68094	-1.69886
24.36512	2.68094	-1.69886
24.36939	2.68094	-1.69886
24.37358	2.68094	-1.69886
24.37787	2.65897	-1.69886
24.38206	2.65897	-1.69886
24.38625	2.65897	-1.69886
24.39043	2.65897	-1.69886
24.39462	2.65897	-1.69886
24.39892	2.63700	-1.69886
24.40313	2.63700	-1.69886
24.40731	2.63700	-1.69886
24.41150	2.63700	-1.69886
24.41571	2.63700	-1.69886
24.41990	2.61502	-1.69886
24.42419	2.61502	-1.69886
24.42864	2.61502	-1.69886
24.43286	2.61502	-1.69886
24.43706	2.61502	-1.69886
24.44125	2.61502	-1.69886
24.44544	2.61502	-1.69886
24.44963	2.61502	-1.69886
24.45382	2.59305	-1.69886
24.45808	2.59305	-1.69886
24.46238	2.59305	-1.69886
24.46659	2.59305	-1.69886
24.47078	2.59305	-1.69886
24.47497	2.59305	-1.69886
24.47917	2.59305	-1.69886
24.48336	2.57108	-1.69886
24.48755	2.59305	-1.69886
24.49186	2.57108	-1.69886
24.49608	2.57108	-1.69886
24.50029	2.57108	-1.69886
24.50449	2.59305	-1.69886
24.50868	2.57108	-1.69886
24.51287	2.57108	-1.69886
24.51708	2.57108	-1.69886
24.52136	2.57108	-1.69886
24.52578	2.57108	-1.69886
24.52998	2.57108	-1.69886
24.53417	2.57108	-1.69886
24.53837	2.57108	-1.69886
24.54256	2.57108	-1.69886
24.54676	2.57108	-1.69886
24.55106	2.57108	-1.69886
24.55536	2.57108	-1.69886
24.55956	2.57108	-1.69886
24.56382	2.57108	-1.69886
24.56802	2.57108	-1.69886
24.57221	2.57108	-1.69886
24.57641	2.57108	-1.69886
24.58060	2.57108	-1.69886
24.58490	2.57108	-1.69886
24.58910	2.57108	-1.69886
24.59328	2.57108	-1.69886
24.59747	2.57108	-1.69886
24.60166	2.54911	-1.69886
24.60584	2.54911	-1.69886
24.61002	2.57108	-1.69886
24.61446	2.57108	-1.69886
24.61870	2.57108	-1.69886
24.62289	2.57108	-1.69886
24.62721	2.57108	-1.69886
24.63140	2.57108	-1.69886
24.63559	2.57108	-1.69886
24.63978	2.57108	-1.69886
24.64405	2.57108	-1.69886
24.64833	2.57108	-1.69886
24.65253	2.57108	-1.69886
24.65672	2.57108	-1.69886
24.66091	2.57108	-1.69886
24.66510	2.57108	-1.69886
24.66929	2.57108	-1.69886
24.67348	2.57108	-1.69886
24.67779	2.57108	-1.69886
24.68202	2.57108	-1.69886
24.68622	2.59305	-1.69886
24.69041	2.59305	-1.69886
24.69460	2.59305	-1.69886
24.69879	2.59305	-1.69886
24.70301	2.59305	-1.69886
24.70748	2.59305	-1.69886
24.71170	2.59305	-1.69886
24.71591	2.59305	-1.69886
24.72011	2.61502	-1.69886
24.72430	2.61502	-1.69886
24.72859	2.61502	-1.69886
24.73277	2.61502	-1.69886
24.73703	2.61502	-1.69886
24.74131	2.61502	-1.69886
24.74551	2.63700	-1.69886
24.74969	2.63700	-1.69886
24.75388	2.63700	-1.69886
24.75807	2.65897	-1.69886
24.76225	2.65897	-1.69886
24.76644	2.65897	-1.69886
24.77074	2.65897	-1.69886
24.77494	2.65897	-1.69886
24.77913	2.68094	-1.69886
24.78332	2.68094	-1.69886
24.78751	2.68094	-1.69886
24.79169	2.68094	-1.69886
24.79588	2.68094	-1.69886
24.80013	2.70291	-1.69886
24.80440	2.70291	-1.69886
24.80859	2.72489	-1.69886
24.81278	2.72489	-1.69886
24.81699	2.72489	-1.69886
24.82118	2.72489	-1.69886
24.82538	2.72489	-1.69886
24.82968	2.74686	-1.69886
24.83398	2.74686	-1.69886
24.83819	2.76883	-1.69886
24.84238	2.76883	-1.69886
24.84657	2.76883	-1.69886
24.85076	2.76883	-1.69886
24.85494	2.79080	-1.69886
24.85913	2.79080	-1.69886
24.86357	2.79080	-1.69886
24.86778	2.81278	-1.69886
24.87197	2.81278	-1.69886
24.87615	2.81278	-1.69886
24.88034	2.81278	-1.69886
24.88452	2.83475	-1.69886
24.88871	2.83475	-1.69886
24.89296	2.83475	-1.69886
24.89724	2.85672	-1.69886
24.90144	2.85672	-1.69886
24.90563	2.87869	-1.69886
24.90981	2.87869	-1.69886
24.91399	2.90067	-1.69886
24.91820	2.90067	-1.69886
24.92239	2.90067	-1.69886
24.92670	2.90067	-1.69886
24.93102	2.92264	-1.69886
24.93522	2.92264	-1.69886
24.93940	2.94461	-1.69886
24.94359	2.94461	-1.69886
24.94777	2.94461	-1.69886
24.95196	2.96659	-1.69886
24.95621	2.96659	-1.69886
24.96048	2.98856	-1.69886
24.96469	2.98856	-1.69886
24.96888	3.01053	-1.69886
24.97306	3.01053	-1.69886
24.97725	3.01053	-1.69886
24.98143	3.03250	-1.69886
24.98562	3.03250	-1.69886
24.98992	3.05448	-1.69886
24.99413	3.05448	-1.69886
24.99831	3.05448	-1.69886
25.00250	3.05448	-1.69886
25.00668	3.07645	-1.69886
25.01087	3.09842	-1.69886
25.01505	3.09842	-1.69886
25.01934	3.12039	-1.69886
25.02363	3.12039	-1.69886
25.02783	3.12039	-1.69886
25.03212	3.14237	-1.69886
25.03631	3.14237	-1.69886
25.04050	3.16434	-1.69886
25.04469	3.16434	-1.69886
25.04898	3.18631	-1.69886
25.05327	3.18631	-1.69886
25.05747	3.18631	-1.69886
25.06172	3.20828	-1.69886
25.06593	3.20828	-1.69886
25.07013	3.23026	-1.69886
25.07432	3.23026	-1.69886
25.07851	3.25223	-1.69886
25.08281	3.25223	-1.69886
25.08702	3.25223	-1.69886
25.09122	3.27420	-1.69886
25.09541	3.27420	-1.69886
25.09960	3.29618	-1.69886
25.10378	3.29618	-1.69886
25.10797	3.29618	-1.69886
25.11224	3.31815	-1.69886
25.11653	3.31815	-1.69886
25.12074	3.34012	-1.69886
25.12493	3.34012	-1.69886
25.12912	3.34012	-1.69886
25.13341	3.34012	-1.69886
25.13760	3.36209	-1.69886
25.14178	3.36209	-1.69886
25.14608	3.38407	-1.69886
25.15031	3.40604	-1.69886
25.15450	3.40604	-1.69886
25.15869	3.40604	-1.69886
25.16287	3.40604	-1.69886
25.16706	3.42801	-1.69886
25.17125	3.42801	-1.69886
25.17551	3.44998	-1.69886
25.17979	3.44998	-1.69886
25.18399	3.44998	-1.69886
25.18819	3.44998	-1.69886
25.19237	3.47196	-1.69886
25.19656	3.47196	-1.69886
25.20075	3.47196	-1.69886
25.20493	3.49393	-1.69886
25.20923	3.49393	-1.69886
25.21344	3.49393	-1.69886
25.21765	3.51590	-1.69886
25.22185	3.51590	-1.69886
25.22604	3.51590	-1.69886
25.23023	3.53787	-1.69886
25.23452	3.53787	-1.69886
25.23896	3.53787	-1.69886
25.24318	3.53787	-1.69886
25.24737	3.53787	-1.69886
25.25156	3.55985	-1.69886
25.25574	3.55985	-1.69886
25.25993	3.58182	-1.69886
25.26411	3.58182	-1.69886
25.26846	3.58182	-1.69886
25.27276	3.58182	-1.69886
25.27697	3.58182	-1.69886
25.28116	3.60379	-1.69886
25.28534	3.60379	-1.69886
25.28954	3.60379	-1.69886
25.29372	3.60379	-1.69886
25.29791	3.60379	-1.69886
25.30221	3.60379	-1.69886
25.30642	3.62577	-1.69886
25.31060	3.62577	-1.69886
25.31479	3.62577	-1.69886
25.31899	3.62577	-1.69886
25.32319	3.62577	-1.69886
25.32739	3.62577	-1.69886
25.33165	3.64774	-1.69886
25.33603	3.64774	-1.69886
25.34022	3.62577	-1.69886
25.34441	3.62577	-1.69886
25.34859	3.64774	-1.69886
25.35278	3.64774	-1.69886
25.35696	3.64774	-1.69886
25.36115	3.64774	-1.69886
25.36544	3.64774	-1.69886
25.36965	3.64774	-1.69886
25.37383	3.64774	-1.69886
25.37802	3.64774	-1.69886
25.38220	3.62577	-1.69886
25.38639	3.64774	-1.69886
25.39058	3.64774	-1.69886
25.39483	3.64774	-1.69886
25.39910	3.64774	-1.69886
25.40326	3.64774	-1.69886
25.40745	3.62577	-1.69886
25.41163	3.64774	-1.69886
25.41582	3.64774	-1.69886
25.42002	3.64774	-1.69886
25.42421	3.62577	-1.69886
25.42852	3.64774	-1.69886
25.43273	3.62577	-1.69886
25.43702	3.62577	-1.69886
25.44120	3.62577	-1.69886
25.44539	3.62577	-1.69886
25.44957	3.62577	-1.69886
25.45376	3.62577	-1.69886
25.45819	3.62577	-1.69886
25.46242	3.62577	-1.69886
25.46662	3.62577	-1.69886
25.47081	3.62577	-1.69886
25.47500	3.62577	-1.69886
25.47920	3.62577	-1.69886
25.48339	3.62577	-1.69886
25.48767	3.60379	-1.69886
25.49196	3.62577	-1.69886
25.49618	3.60379	-1.69886
25.50038	3.60379	-1.69886
25.50457	3.60379	-1.69886
25.50877	3.60379	-1.69886
25.51296	3.60379	-1.69886
25.51717	3.60379	-1.69886
25.52149	3.60379	-1.69886
25.52571	3.58182	-1.69886
25.52991	3.58182	-1.69886
25.53410	3.58182	-1.69886
25.53842	3.58182	-1.69886
25.54261	3.58182	-1.69886
25.54680	3.58182	-1.69886
25.55127	3.55985	-1.69886
25.55548	3.55985	-1.69886
25.55968	3.58182	-1.69886
25.56387	3.55985	-1.69886
25.56808	3.55985	-1.69886
25.57228	3.55985	-1.69886
25.57648	3.53787	-1.69886
25.58075	3.53787	-1.69886
25.58503	3.53787	-1.69886
25.58923	3.53787	-1.69886
25.59343	3.53787	-1.69886
25.59762	3.53787	-1.69886
25.60180	3.51590	-1.69886
25.60599	3.51590	-1.69886
25.61017	3.51590	-1.69886
25.61447	3.51590	-1.69886
25.61870	3.51590	-1.69886
25.62290	3.51590	-1.69886
25.62708	3.49393	-1.69886
25.63125	3.49393	-1.69886
25.63544	3.49393	-1.69886
25.63972	3.49393	-1.69886
25.64417	3.49393	-1.69886
25.64838	3.49393	-1.69886
25.65258	3.47196	-1.69886
25.65677	3.47196	-1.69886
25.66096	3.47196	-1.69886
25.66515	3.47196	-1.69886
25.66934	3.47196	-1.69886
25.67360	3.44998	-1.69886
25.67789	3.44998	-1.69886
25.68209	3.44998	-1.69886
25.68629	3.44998	-1.69886
25.69048	3.44998	-1.69886
25.69468	3.42801	-1.69886
25.69887	3.42801	-1.69886
25.70306	3.42801	-1.69886
25.70738	3.42801	-1.69886
25.71159	3.40604	-1.69886
25.71578	3.40604	-1.69886
25.71999	3.40604	-1.69886
25.72419	3.40604	-1.69886
25.72839	3.40604	-1.69886
25.73258	3.38407	-1.69886
25.73685	3.38407	-1.69886
25.74126	3.38407	-1.69886
25.74546	3.38407	-1.69886
25.74966	3.38407	-1.69886
25.75386	3.36209	-1.69886
25.75807	3.36209	-1.69886
25.76227	3.36209	-1.69886
25.76654	3.36209	-1.69886
25.77083	3.36209	-1.69886
25.77503	3.36209	-1.69886
25.77922	3.36209	-1.69886
25.78341	3.34012	-1.69886
25.78760	3.34012	-1.69886
25.79178	3.34012	-1.69886
25.79597	3.34012	-1.69886
25.80027	3.31815	-1.69886
25.80447	3.34012	-1.69886
25.80866	3.31815	-1.69886
25.81285	3.31815	-1.69886
25.81709	3.31815	-1.69886
25.82129	3.31815	-1.69886
25.82548	3.31815	-1.69886
25.82974	3.29618	-1.69886
25.83401	3.29618	-1.69886
25.83821	3.29618	-1.69886
25.84250	3.29618	-1.69886
25.84669	3.29618	-1.69886
25.85087	3.29618	-1.69886
25.85506	3.27420	-1.69886
25.85925	3.27420	-1.69886
25.86354	3.27420	-1.69886
25.86774	3.27420	-1.69886
25.87193	3.27420	-1.69886
25.87612	3.27420	-1.69886
25.88030	3.25223	-1.69886
25.88448	3.25223	-1.69886
25.88867	3.25223	-1.69886
25.89310	3.25223	-1.69886
25.89732	3.25223	-1.69886
25.90152	3.25223	-1.69886
25.90571	3.23026	-1.69886
25.90990	3.25223	-1.69886
25.91409	3.23026	-1.69886
25.91830	3.23026	-1.69886
25.92258	3.23026	-1.69886
25.92688	3.23026	-1.69886
25.93109	3.23026	-1.69886
25.93527	3.23026	-1.69886
25.93946	3.20828	-1.69886
25.94378	3.20828	-1.69886
25.94797	3.20828	-1.69886
25.95216	3.20828	-1.69886
25.95647	3.20828	-1.69886
25.96068	3.18631	-1.69886
25.96487	3.18631	-1.69886
25.96906	3.18631	-1.69886
25.97325	3.18631	-1.69886
25.97744	3.18631	-1.69886
25.98163	3.18631	-1.69886
25.98606	3.18631	-1.69886
25.99027	3.18631	-1.69886
25.99447	3.16434	-1.69886
25.99866	3.16434	-1.69886
26.00285	3.16434	-1.69886
26.00704	3.16434	-1.69886
26.01124	3.16434	-1.69886
26.01553	3.16434	-1.69886
26.01984	3.14237	-1.69886
26.02404	3.14237	-1.69886
26.02823	3.14237	-1.69886
26.03242	3.14237	-1.69886
26.03661	3.14237	-1.69886
26.04080	3.14237	-1.69886
26.04510	3.14237	-1.69886
26.04940	3.14237	-1.69886
26.05360	3.12039	-1.69886
26.05779	3.12039	-1.69886
26.06198	3.12039	-1.69886
26.06619	3.14237	-1.69886
26.07038	3.12039	-1.69886
26.07457	3.12039	-1.69886
26.07903	3.12039	-1.69886
26.08325	3.12039	-1.69886
26.08744	3.09842	-1.69886
26.09163	3.09842	-1.69886
26.09581	3.12039	-1.69886
26.10000	3.09842	-1.69886
26.10419	3.09842	-1.69886
26.10845	3.09842	-1.69886
26.11274	3.09842	-1.69886
26.11694	3.09842	-1.69886
26.12114	3.09842	-1.69886
26.12533	3.09842	-1.69886
26.12952	3.09842	-1.69886
26.13371	3.07645	-1.69886
26.13790	3.09842	-1.69886
26.14220	3.09842	-1.69886
26.14651	3.07645	-1.69886
26.15070	3.07645	-1.69886
26.15490	3.07645	-1.69886
26.15909	3.07645	-1.69886
26.16325	3.07645	-1.69886
26.16743	3.07645	-1.69886
26.17169	3.07645	-1.69886
26.17598	3.07645	-1.69886
26.18018	3.07645	-1.69886
26.18437	3.05448	-1.69886
26.18855	3.05448	-1.69886
26.19274	3.05448	-1.69886
26.19693	3.05448	-1.69886
26.20112	3.05448	-1.69886
26.20542	3.05448	-1.69886
26.20962	3.05448	-1.69886
26.21381	3.05448	-1.69886
26.21802	3.05448	-1.69886
26.22221	3.05448	-1.69886
26.22641	3.03250	-1.69886
26.23060	3.05448	-1.69886
26.23486	3.03250	-1.69886
26.23915	3.03250	-1.69886
26.24334	3.03250	-1.69886
26.24763	3.03250	-1.69886
26.25182	3.01053	-1.69886
26.25600	3.03250	-1.69886
26.26019	3.01053	-1.69886
26.26438	3.01053	-1.69886
26.26868	3.01053	-1.69886
26.27292	3.01053	-1.69886
26.27712	3.01053	-1.69886
26.28131	3.01053	-1.69886
26.28550	3.01053	-1.69886
26.28970	3.01053	-1.69886
26.29389	3.01053	-1.69886
26.29816	2.98856	-1.69886
26.30245	2.98856	-1.69886
26.30666	2.98856	-1.69886
26.31086	2.98856	-1.69886
26.31505	2.98856	-1.69886
26.31927	2.96659	-1.69886
26.32347	2.96659	-1.69886
26.32767	2.98856	-1.69886
26.33198	2.96659	-1.69886
26.33619	2.96659	-1.69886
26.34038	2.96659	-1.69886
26.34457	2.96659	-1.69886
26.34888	2.96659	-1.69886
26.35307	2.96659	-1.69886
26.35726	2.94461	-1.69886
26.36168	2.96659	-1.69886
26.36590	2.94461	-1.69886
26.37009	2.94461	-1.69886
26.37430	2.94461	-1.69886
26.37849	2.92264	-1.69886
26.38268	2.92264	-1.69886
26.38687	2.94461	-1.69886
26.39114	2.92264	-1.69886
26.39542	2.92264	-1.69886
26.39964	2.92264	-1.69886
26.40382	2.90067	-1.69886
26.40801	2.90067	-1.69886
26.41219	2.90067	-1.69886
26.41638	2.90067	-1.69886
26.42058	2.90067	-1.69886
26.42490	2.90067	-1.69886
26.42911	2.90067	-1.69886
26.43330	2.90067	-1.69886
26.43749	2.87869	-1.69886
26.44168	2.87869	-1.69886
26.44586	2.87869	-1.69886
26.45015	2.87869	-1.69886
26.45440	2.87869	-1.69886
26.45868	2.87869	-1.69886
26.46288	2.85672	-1.69886
26.46706	2.85672	-1.69886
26.47125	2.85672	-1.69886
26.47543	2.85672	-1.69886
26.47962	2.85672	-1.69886
26.48380	2.85672	-1.69886
26.48810	2.85672	-1.69886
26.49230	2.85672	-1.69886
26.49650	2.83475	-1.69886
26.50070	2.83475	-1.69886
26.50489	2.83475	-1.69886
26.50908	2.83475	-1.69886
26.51326	2.83475	-1.69886
26.51770	2.83475	-1.69886
26.52193	2.83475	-1.69886
26.52613	2.83475	-1.69886
26.53034	2.83475	-1.69886
26.53454	2.83475	-1.69886
26.53873	2.81278	-1.69886
26.54292	2.81278	-1.69886
26.54724	2.83475	-1.69886
26.55166	2.81278	-1.69886
26.55586	2.81278	-1.69886
26.56005	2.81278	-1.69886
26.56424	2.81278	-1.69886
26.56845	2.81278	-1.69886
26.57265	2.81278	-1.69886
26.57686	2.81278	-1.69886
26.58118	2.81278	-1.69886
26.58539	2.81278	-1.69886
26.58958	2.81278	-1.69886
26.59378	2.81278	-1.69886
26.59797	2.81278	-1.69886
26.60217	2.81278	-1.69886
26.60636	2.81278	-1.69886
26.61079	2.81278	-1.69886
26.61500	2.81278	-1.69886
26.61923	2.81278	-1.69886
26.62343	2.81278	-1.69886
26.62763	2.79080	-1.69886
26.63182	2.79080	-1.69886
26.63602	2.81278	-1.69886
26.64027	2.79080	-1.69886
26.64455	2.79080	-1.69886
26.64875	2.79080	-1.69886
26.65305	2.79080	-1.69886
26.65723	2.79080	-1.69886
26.66142	2.79080	-1.69886
26.66560	2.79080	-1.69886
26.66985	2.79080	-1.69886
26.67414	2.79080	-1.69886
26.67834	2.79080	-1.69886
26.68253	2.79080	-1.69886
26.68672	2.79080	-1.69886
26.69090	2.79080	-1.69886
26.69509	2.79080	-1.69886
26.69925	2.79080	-1.69886
26.70355	2.79080	-1.69886
26.70775	2.79080	-1.69886
26.71194	2.79080	-1.69886
26.71613	2.79080	-1.69886
26.72033	2.79080	-1.69886
26.72452	2.79080	-1.69886
26.72872	2.79080	-1.69886
26.73298	2.79080	-1.69886
26.73725	2.79080	-1.69886
26.74146	2.79080	-1.69886
26.74564	2.79080	-1.69886
26.74983	2.79080	-1.69886
26.75412	2.79080	-1.69886
26.75831	2.79080	-1.69886
26.76249	2.79080	-1.69886
26.76680	2.76883	-1.69886
26.77100	2.79080	-1.69886
26.77519	2.79080	-1.69886
26.77938	2.76883	-1.69886
26.78356	2.79080	-1.69886
26.78775	2.79080	-1.69886
26.79193	2.79080	-1.69886
26.79618	2.79080	-1.69886
26.80045	2.79080	-1.69886
26.80464	2.76883	-1.69886
26.80883	2.79080	-1.69886
26.81301	2.76883	-1.69886
26.81720	2.76883	-1.69886
26.82140	2.79080	-1.69886
26.82560	2.76883	-1.69886
26.82990	2.76883	-1.69886
26.83411	2.79080	-1.69886
26.83830	2.76883	-1.69886
26.84249	2.79080	-1.69886
26.84667	2.79080	-1.69886
26.85086	2.76883	-1.69886
26.85515	2.79080	-1.69886
26.85960	2.79080	-1.69886
26.86382	2.79080	-1.69886
26.86802	2.79080	-1.69886
26.87221	2.79080	-1.69886
26.87639	2.79080	-1.69886
26.88059	2.79080	-1.69886
26.88478	2.79080	-1.69886
26.88904	2.79080	-1.69886
26.89333	2.79080	-1.69886
26.89753	2.79080	-1.69886
26.90173	2.79080	-1.69886
26.90593	2.79080	-1.69886
26.91012	2.79080	-1.69886
26.91431	2.79080	-1.69886
26.91854	2.79080	-1.69886
26.92287	2.81278	-1.69886
26.92708	2.81278	-1.69886
26.93126	2.81278	-1.69886
26.93546	2.81278	-1.69886
26.93965	2.81278	-1.69886
26.94384	2.81278	-1.69886
26.94803	2.81278	-1.69886
26.95230	2.81278	-1.69886
26.95668	2.81278	-1.69886
26.96088	2.81278	-1.69886
26.96507	2.83475	-1.69886
26.96926	2.81278	-1.69886
26.97345	2.83475	-1.69886
26.97764	2.83475	-1.69886
26.98183	2.83475	-1.69886
26.98613	2.83475	-1.69886
26.99034	2.85672	-1.69886
26.99453	2.83475	-1.69886
26.99871	2.83475	-1.69886
27.00290	2.85672	-1.69886
27.00709	2.85672	-1.69886
27.01125	2.85672	-1.69886
27.01570	2.85672	-1.69886
27.01994	2.85672	-1.69886
27.02414	2.85672	-1.69886
27.02833	2.87869	-1.69886
27.03253	2.87869	-1.69886
27.03672	2.87869	-1.69886
27.04092	2.87869	-1.69886
27.04525	2.87869	-1.69886
27.04956	2.90067	-1.69886
27.05377	2.90067	-1.69886
27.05807	2.90067	-1.69886
27.06226	2.90067	-1.69886
27.06649	2.92264	-1.69886
27.07070	2.92264	-1.69886
27.07490	2.90067	-1.69886
27.07924	2.92264	-1.69886
27.08345	2.92264	-1.69886
27.08765	2.92264	-1.69886
27.09184	2.94461	-1.69886
27.09604	2.94461	-1.69886
27.10025	2.94461	-1.69886
27.10444	2.94461	-1.69886
27.10888	2.96659	-1.69886
27.11310	2.96659	-1.69886
27.11729	2.96659	-1.69886
27.12150	2.96659	-1.69886
27.12570	2.96659	-1.69886
27.12989	2.98856	-1.69886
27.13408	2.98856	-1.69886
27.13834	2.98856	-1.69886
27.14261	3.01053	-1.69886
27.14681	3.01053	-1.69886
27.15099	3.01053	-1.69886
27.15519	3.01053	-1.69886
27.15948	3.03250	-1.69886
27.16366	3.03250	-1.69886
27.16785	3.03250	-1.69886
27.17215	3.05448	-1.69886
27.17635	3.05448	-1.69886
27.18054	3.05448	-1.69886
27.18472	3.07645	-1.69886
27.18891	3.05448	-1.69886
27.19309	3.07645	-1.69886
27.19728	3.07645	-1.69886
27.20154	3.07645	-1.69886
27.20580	3.09842	-1.69886
27.21000	3.09842	-1.69886
27.21419	3.09842	-1.69886
27.21837	3.12039	-1.69886
27.22257	3.12039	-1.69886
27.22676	3.12039	-1.69886
27.23096	3.12039	-1.69886
27.23528	3.12039	-1.69886
27.23949	3.14237	-1.69886
27.24367	3.14237	-1.69886
27.24786	3.16434	-1.69886
27.25204	3.16434	-1.69886
27.25623	3.16434	-1.69886
27.26052	3.16434	-1.69886
27.26497	3.18631	-1.69886
27.26933	3.18631	-1.69886
27.27354	3.18631	-1.69886
27.27774	3.18631	-1.69886
27.28194	3.18631	-1.69886
27.28613	3.18631	-1.69886
27.29032	3.20828	-1.69886
27.29459	3.20828	-1.69886
27.29886	3.23026	-1.69886
27.30306	3.23026	-1.69886
27.30726	3.23026	-1.69886
27.31145	3.23026	-1.69886
27.31564	3.25223	-1.69886
27.31985	3.25223	-1.69886
27.32405	3.25223	-1.69886
27.32836	3.27420	-1.69886
27.33257	3.27420	-1.69886
27.33677	3.27420	-1.69886
27.34096	3.27420	-1.69886
27.34515	3.27420	-1.69886
27.34934	3.29618	-1.69886
27.35353	3.29618	-1.69886
27.35796	3.31815	-1.69886
27.36228	3.31815	-1.69886
27.36648	3.31815	-1.69886
27.37067	3.31815	-1.69886
27.37486	3.31815	-1.69886
27.37905	3.34012	-1.69886
27.38324	3.34012	-1.69886
27.38749	3.34012	-1.69886
27.39176	3.34012	-1.69886
27.39596	3.34012	-1.69886
27.40015	3.36209	-1.69886
27.40433	3.36209	-1.69886
27.40852	3.36209	-1.69886
27.41270	3.38407	-1.69886
27.41689	3.38407	-1.69886
27.42120	3.38407	-1.69886
27.42542	3.38407	-1.69886
27.42961	3.40604	-1.69886
27.43380	3.40604	-1.69886
27.43798	3.40604	-1.69886
27.44217	3.40604	-1.69886
27.44635	3.40604	-1.69886
27.45078	3.42801	-1.69886
27.45500	3.42801	-1.69886
27.45920	3.42801	-1.69886
27.46351	3.42801	-1.69886
27.46770	3.42801	-1.69886
27.47189	3.42801	-1.69886
27.47608	3.44998	-1.69886
27.48035	3.44998	-1.69886
27.48464	3.44998	-1.69886
27.48884	3.44998	-1.69886
27.49303	3.44998	-1.69886
27.49728	3.44998	-1.69886
27.50148	3.44998	-1.69886
27.50567	3.47196	-1.69886
27.50986	3.47196	-1.69886
27.51418	3.47196	-1.69886
27.51839	3.47196	-1.69886
27.52259	3.47196	-1.69886
27.52679	3.47196	-1.69886
27.53098	3.47196	-1.69886
27.53519	3.49393	-1.69886
27.53938	3.47196	-1.69886
27.54365	3.47196	-1.69886
27.54793	3.47196	-1.69886
27.55213	3.49393	-1.69886
27.55632	3.49393	-1.69886
27.56051	3.49393	-1.69886
27.56480	3.49393	-1.69886
27.56901	3.49393	-1.69886
27.57326	3.49393	-1.69886
27.57755	3.49393	-1.69886
27.58175	3.49393	-1.69886
27.58594	3.49393	-1.69886
27.59013	3.49393	-1.69886
27.59432	3.49393	-1.69886
27.59850	3.49393	-1.69886
27.60268	3.49393	-1.69886
27.60699	3.49393	-1.69886
27.61121	3.49393	-1.69886
27.61540	3.49393	-1.69886
27.61961	3.49393	-1.69886
27.62380	3.49393	-1.69886
27.62799	3.49393	-1.69886
27.63218	3.49393	-1.69886
27.63643	3.49393	-1.69886
27.64070	3.49393	-1.69886
27.64489	3.47196	-1.69886
27.64908	3.49393	-1.69886
27.65326	3.49393	-1.69886
27.65745	3.47196	-1.69886
27.66163	3.47196	-1.69886
27.66592	3.47196	-1.69886
27.67022	3.47196	-1.69886
27.67445	3.47196	-1.69886
27.67864	3.47196	-1.69886
27.68282	3.47196	-1.69886
27.68701	3.44998	-1.69886
27.69120	3.44998	-1.69886
27.69539	3.44998	-1.69886
27.69982	3.44998	-1.69886
27.70404	3.44998	-1.69886
27.70823	3.44998	-1.69886
27.71243	3.44998	-1.69886
27.71663	3.42801	-1.69886
27.72084	3.42801	-1.69886
27.72504	3.42801	-1.69886
27.72930	3.42801	-1.69886
27.73359	3.42801	-1.69886
27.73779	3.40604	-1.69886
27.74199	3.40604	-1.69886
27.74618	3.40604	-1.69886
27.75037	3.38407	-1.69886
27.75456	3.38407	-1.69886
27.75876	3.38407	-1.69886
27.76307	3.36209	-1.69886
27.76739	3.36209	-1.69886
27.77158	3.36209	-1.69886
27.77577	3.34012	-1.69886
27.77996	3.34012	-1.69886
27.78415	3.34012	-1.69886
27.78834	3.34012	-1.69886
27.79261	3.31815	-1.69886
27.79689	3.31815	-1.69886
27.80110	3.31815	-1.69886
27.80530	3.31815	-1.69886
27.80949	3.31815	-1.69886
27.81369	3.29618	-1.69886
27.81787	3.29618	-1.69886
27.82216	3.29618	-1.69886
27.82646	3.27420	-1.69886
27.83067	3.27420	-1.69886
27.83487	3.27420	-1.69886
27.83906	3.27420	-1.69886
27.84325	3.25223	-1.69886
27.84744	3.25223	-1.69886
27.85162	3.23026	-1.69886
27.85592	3.23026	-1.69886
27.86012	3.23026	-1.69886
27.86431	3.23026	-1.69886
27.86860	3.20828	-1.69886
27.87278	3.20828	-1.69886
27.87697	3.20828	-1.69886
27.88115	3.20828	-1.69886
27.88540	3.20828	-1.69886
27.88968	3.18631	-1.69886
27.89387	3.18631	-1.69886
27.89806	3.18631	-1.69886
27.90225	3.18631	-1.69886
27.90643	3.16434	-1.69886
27.91062	3.16434	-1.69886
27.91481	3.16434	-1.69886
27.91913	3.16434	-1.69886
27.92335	3.16434	-1.69886
27.92755	3.16434	-1.69886
27.93174	3.14237	-1.69886
27.93593	3.14237	-1.69886
27.94012	3.14237	-1.69886
27.94430	3.14237	-1.69886
27.94875	3.12039	-1.69886
27.95297	3.14237	-1.69886
27.95716	3.14237	-1.69886
27.96135	3.12039	-1.69886
27.96555	3.12039	-1.69886
27.96985	3.12039	-1.69886
27.97404	3.12039	-1.69886
27.97830	3.12039	-1.69886
27.98260	3.12039	-1.69886
27.98680	3.12039	-1.69886
27.99099	3.12039	-1.69886
27.99520	3.12039	-1.69886
27.99939	3.12039	-1.69886
28.00358	3.12039	-1.69886
28.00777	3.12039	-1.69886
28.01209	3.12039	-1.69886
28.01630	3.12039	-1.69886
28.02051	3.12039	-1.69886
28.02471	3.12039	-1.69886
28.02891	3.12039	-1.69886
28.03310	3.12039	-1.69886
28.03730	3.12039	-1.69886
28.04159	3.12039	-1.69886
28.04588	3.14237	-1.69886
28.05008	3.14237	-1.69886
28.05427	3.14237	-1.69886
28.05847	3.14237	-1.69886
28.06266	3.14237	-1.69886
28.06685	3.14237	-1.69886
28.07119	3.14237	-1.69886
28.07551	3.14237	-1.69886
28.07973	3.16434	-1.69886
28.08392	3.16434	-1.69886
28.08811	3.16434	-1.69886
28.09232	3.16434	-1.69886
28.09651	3.16434	-1.69886
28.10070	3.18631	-1.69886
28.10517	3.18631	-1.69886
28.10938	3.18631	-1.69886
28.11358	3.18631	-1.69886
28.11777	3.20828	-1.69886
28.12198	3.20828	-1.69886
28.12618	3.20828	-1.69886
28.13038	3.23026	-1.69886
28.13467	3.23026	-1.69886
28.13897	3.23026	-1.69886
28.14319	3.23026	-1.69886
28.14739	3.25223	-1.69886
28.15159	3.25223	-1.69886
28.15579	3.27420	-1.69886
28.15998	3.27420	-1.69886
28.16417	3.27420	-1.69886
28.16849	3.27420	-1.69886
28.17282	3.27420	-1.69886
28.17701	3.29618	-1.69886
28.18121	3.29618	-1.69886
28.18540	3.31815	-1.69886
28.18959	3.31815	-1.69886
28.19378	3.31815	-1.69886
28.19823	3.34012	-1.69886
28.20244	3.34012	-1.69886
28.20664	3.36209	-1.69886
28.21083	3.36209	-1.69886
28.21502	3.36209	-1.69886
28.21922	3.36209	-1.69886
28.22343	3.38407	-1.69886
28.22772	3.38407	-1.69886
28.23202	3.38407	-1.69886
28.23623	3.38407	-1.69886
28.24042	3.40604	-1.69886
28.24461	3.40604	-1.69886
28.24880	3.42801	-1.69886
28.25298	3.42801	-1.69886
28.25717	3.44998	-1.69886
28.26147	3.44998	-1.69886
28.26569	3.44998	-1.69886
28.27003	3.44998	-1.69886
28.27434	3.44998	-1.69886
28.27852	3.47196	-1.69886
28.28271	3.47196	-1.69886
28.28690	3.49393	-1.69886
28.29136	3.49393	-1.69886
28.29558	3.49393	-1.69886
28.29977	3.49393	-1.69886
28.30397	3.51590	-1.69886
28.30816	3.51590	-1.69886
28.31235	3.53787	-1.69886
28.31655	3.53787	-1.69886
28.32085	3.53787	-1.69886
28.32516	3.53787	-1.69886
28.32938	3.55985	-1.69886
28.33358	3.55985	-1.69886
28.33777	3.55985	-1.69886
28.34196	3.58182	-1.69886
28.34615	3.58182	-1.69886
28.35035	3.58182	-1.69886
28.35466	3.58182	-1.69886
28.35887	3.60379	-1.69886
28.36307	3.60379	-1.69886
28.36726	3.62577	-1.69886
28.37145	3.62577	-1.69886
28.37575	3.62577	-1.69886
28.37997	3.62577	-1.69886
28.38442	3.62577	-1.69886
28.38864	3.62577	-1.69886
28.39283	3.64774	-1.69886
28.39702	3.64774	-1.69886
28.40120	3.64774	-1.69886
28.40538	3.64774	-1.69886
28.40957	3.64774	-1.69886
28.41382	3.64774	-1.69886
28.41811	3.66971	-1.69886
28.42233	3.66971	-1.69886
28.42652	3.66971	-1.69886
28.43072	3.66971	-1.69886
28.43490	3.69168	-1.69886
28.43909	3.69168	-1.69886
28.44325	3.69168	-1.69886
28.44755	3.71366	-1.69886
28.45176	3.71366	-1.69886
28.45594	3.71366	-1.69886
28.46013	3.71366	-1.69886
28.46432	3.71366	-1.69886
28.46850	3.73563	-1.69886
28.47269	3.73563	-1.69886
28.47724	3.73563	-1.69886
28.48145	3.73563	-1.69886
28.48564	3.73563	-1.69886
28.48983	3.73563	-1.69886
28.49403	3.73563	-1.69886
28.49825	3.75760	-1.69886
28.50245	3.75760	-1.69886
28.50674	3.75760	-1.69886
28.51102	3.75760	-1.69886
28.51524	3.75760	-1.69886
28.51943	3.75760	-1.69886
28.52364	3.75760	-1.69886
28.52784	3.75760	-1.69886
28.53204	3.75760	-1.69886
28.53623	3.77957	-1.69886
28.54054	3.77957	-1.69886
28.54475	3.77957	-1.69886
28.54894	3.77957	-1.69886
28.55313	3.77957	-1.69886
28.55732	3.77957	-1.69886
28.56151	3.77957	-1.69886
28.56571	3.77957	-1.69886
28.57018	3.77957	-1.69886
28.57441	3.77957	-1.69886
28.57872	3.77957	-1.69886
28.58291	3.77957	-1.69886
28.58710	3.77957	-1.69886
28.59125	3.77957	-1.69886
28.59544	3.77957	-1.69886
28.59970	3.77957	-1.69886
28.60398	3.77957	-1.69886
28.60817	3.80155	-1.69886
28.61236	3.80155	-1.69886
28.61655	3.77957	-1.69886
28.62079	3.80155	-1.69886
28.62499	3.77957	-1.69886
28.62924	3.80155	-1.69886
28.63353	3.77957	-1.69886
28.63773	3.77957	-1.69886
28.64192	3.77957	-1.69886
28.64611	3.80155	-1.69886
28.65030	3.80155	-1.69886
28.65448	3.77957	-1.69886
28.65867	3.80155	-1.69886
28.66298	3.77957	-1.69886
28.66720	3.77957	-1.69886
28.67139	3.80155	-1.69886
28.67558	3.77957	-1.69886
28.67987	3.80155	-1.69886
28.68405	3.80155	-1.69886
28.68824	3.77957	-1.69886
28.69249	3.77957	-1.69886
28.69676	3.77957	-1.69886
28.70095	3.80155	-1.69886
28.70514	3.80155	-1.69886
28.70932	3.77957	-1.69886
28.71351	3.77957	-1.69886
28.71769	3.77957	-1.69886
28.72189	3.77957	-1.69886
28.72621	3.77957	-1.69886
28.73043	3.77957	-1.69886
28.73462	3.77957	-1.69886
28.73881	3.77957	-1.69886
28.74299	3.77957	-1.69886
28.74719	3.77957	-1.69886
28.75137	3.77957	-1.69886
28.75582	3.77957	-1.69886
28.76003	3.77957	-1.69886
28.76423	3.77957	-1.69886
28.76842	3.77957	-1.69886
28.77261	3.77957	-1.69886
28.77680	3.77957	-1.69886
28.78110	3.77957	-1.69886
28.78536	3.77957	-1.69886
28.78965	3.77957	-1.69886
28.79385	3.77957	-1.69886
28.79804	3.77957	-1.69886
28.80223	3.77957	-1.69886
28.80642	3.77957	-1.69886
28.81061	3.77957	-1.69886
28.81481	3.77957	-1.69886
28.81914	3.75760	-1.69886
28.82337	3.77957	-1.69886
28.82758	3.77957	-1.69886
28.83177	3.77957	-1.69886
28.83597	3.77957	-1.69886
28.84016	3.77957	-1.69886
28.84435	3.75760	-1.69886
28.84862	3.75760	-1.69886
28.85290	3.75760	-1.69886
28.85711	3.75760	-1.69886
28.86131	3.75760	-1.69886
28.86552	3.77957	-1.69886
28.86971	3.75760	-1.69886
28.87390	3.75760	-1.69886
28.87810	3.75760	-1.69886
28.88252	3.75760	-1.69886
28.88671	3.75760	-1.69886
28.89090	3.75760	-1.69886
28.89508	3.75760	-1.69886
28.89925	3.75760	-1.69886
28.90344	3.75760	-1.69886
28.90762	3.75760	-1.69886
28.91206	3.75760	-1.69886
28.91627	3.75760	-1.69886
28.92047	3.75760	-1.69886
28.92467	3.75760	-1.69886
28.92886	3.75760	-1.69886
28.93306	3.75760	-1.69886
28.93725	3.75760	-1.69886
28.94151	3.75760	-1.69886
28.94580	3.75760	-1.69886
28.95002	3.75760	-1.69886
28.95421	3.75760	-1.69886
28.95840	3.75760	-1.69886
28.96260	3.73563	-1.69886
28.96679	3.75760	-1.69886
28.97098	3.75760	-1.69886
28.97530	3.73563	-1.69886
28.97951	3.75760	-1.69886
28.98382	3.75760	-1.69886
28.98801	3.75760	-1.69886
28.99220	3.75760	-1.69886
28.99639	3.75760	-1.69886
29.00058	3.73563	-1.69886
29.00501	3.75760	-1.69886
29.00923	3.75760	-1.69886
29.01343	3.75760	-1.69886
29.01762	3.75760	-1.69886
29.02183	3.75760	-1.69886
29.02603	3.75760	-1.69886
29.03023	3.75760	-1.69886
29.03451	3.75760	-1.69886
29.03881	3.75760	-1.69886
29.04300	3.75760	-1.69886
29.04722	3.75760	-1.69886
29.05141	3.75760	-1.69886
29.05559	3.75760	-1.69886
29.05978	3.75760	-1.69886
29.06423	3.73563	-1.69886
29.06854	3.73563	-1.69886
29.07275	3.73563	-1.69886
29.07694	3.75760	-1.69886
29.08113	3.75760	-1.69886
29.08542	3.75760	-1.69886
29.08961	3.75760	-1.69886
29.09379	3.75760	-1.69886
29.09810	3.75760	-1.69886
29.10234	3.75760	-1.69886
29.10653	3.75760	-1.69886
29.11072	3.75760	-1.69886
29.11491	3.75760	-1.69886
29.11912	3.75760	-1.69886
29.12333	3.75760	-1.69886
29.12783	3.75760	-1.69886
29.13205	3.75760	-1.69886
29.13624	3.75760	-1.69886
29.14043	3.75760	-1.69886
29.14462	3.75760	-1.69886
29.14880	3.75760	-1.69886
29.15299	3.75760	-1.69886
29.15725	3.75760	-1.69886
29.16152	3.75760	-1.69886
29.16572	3.75760	-1.69886
29.16991	3.75760	-1.69886
29.17409	3.75760	-1.69886
29.17828	3.75760	-1.69886
29.18247	3.75760	-1.69886
29.18676	3.77957	-1.69886
29.19106	3.77957	-1.69886
29.19529	3.75760	-1.69886
29.19948	3.77957	-1.69886
29.20367	3.77957	-1.69886
29.20785	3.77957	-1.69886
29.21203	3.77957	-1.69886
29.21622	3.77957	-1.69886
29.22069	3.77957	-1.69886
29.22492	3.77957	-1.69886
29.22912	3.77957	-1.69886
29.23332	3.77957	-1.69886
29.23752	3.77957	-1.69886
29.24171	3.80155	-1.69886
29.24590	3.77957	-1.69886
29.25017	3.77957	-1.69886
29.25448	3.80155	-1.69886
29.25869	3.80155	-1.69886
29.26289	3.80155	-1.69886
29.26708	3.80155	-1.69886
29.27128	3.80155	-1.69886
29.27548	3.80155	-1.69886
29.27968	3.80155	-1.69886
29.28399	3.80155	-1.69886
29.28832	3.80155	-1.69886
29.29251	3.80155	-1.69886
29.29670	3.82352	-1.69886
29.30089	3.82352	-1.69886
29.30508	3.82352	-1.69886
29.30927	3.82352	-1.69886
29.31369	3.82352	-1.69886
29.31791	3.82352	-1.69886
29.32212	3.84549	-1.69886
29.32632	3.82352	-1.69886
29.33051	3.84549	-1.69886
29.33470	3.84549	-1.69886
29.33889	3.84549	-1.69886
29.34315	3.84549	-1.69886
29.34744	3.84549	-1.69886
29.35163	3.84549	-1.69886
29.35582	3.84549	-1.69886
29.36001	3.84549	-1.69886
29.36419	3.84549	-1.69886
29.36838	3.84549	-1.69886
29.37256	3.86746	-1.69886
29.37686	3.86746	-1.69886
29.38107	3.86746	-1.69886
29.38526	3.86746	-1.69886
29.38955	3.86746	-1.69886
29.39374	3.86746	-1.69886
29.39792	3.86746	-1.69886
29.40210	3.86746	-1.69886
29.40654	3.88944	-1.69886
29.41076	3.88944	-1.69886
29.41495	3.88944	-1.69886
29.41915	3.88944	-1.69886
29.42336	3.88944	-1.69886
29.42756	3.88944	-1.69886
29.43176	3.88944	-1.69886
29.43605	3.91141	-1.69886
29.44035	3.91141	-1.69886
29.44455	3.91141	-1.69886
29.44874	3.91141	-1.69886
29.45294	3.91141	-1.69886
29.45713	3.91141	-1.69886
29.46132	3.91141	-1.69886
29.46551	3.91141	-1.69886
29.46982	3.91141	-1.69886
29.47403	3.93338	-1.69886
29.47822	3.93338	-1.69886
29.48241	3.93338	-1.69886
29.48661	3.93338	-1.69886
29.49091	3.93338	-1.69886
29.49510	3.93338	-1.69886
29.49956	3.93338	-1.69886
29.50382	3.93338	-1.69886
29.50805	3.93338	-1.69886
29.51225	3.95536	-1.69886
29.51644	3.95536	-1.69886
29.52064	3.95536	-1.69886
29.52483	3.95536	-1.69886
29.52910	3.95536	-1.69886
29.53337	3.95536	-1.69886
29.53757	3.97733	-1.69886
29.54176	3.95536	-1.69886
29.54595	3.95536	-1.69886
29.55013	3.97733	-1.69886
29.55432	3.97733	-1.69886
29.55850	3.97733	-1.69886
29.56280	3.97733	-1.69886
29.56701	3.97733	-1.69886
29.57121	3.97733	-1.69886
29.57539	3.97733	-1.69886
29.57958	3.97733	-1.69886
29.58377	3.97733	-1.69886
29.58796	3.99930	-1.69886
29.59233	3.99930	-1.69886
29.59660	3.97733	-1.69886
29.60080	3.97733	-1.69886
29.60498	3.99930	-1.69886
29.60917	3.99930	-1.69886
29.61336	3.99930	-1.69886
29.61755	3.99930	-1.69886
29.62173	3.99930	-1.69886
29.62603	3.99930	-1.69886
29.63025	3.99930	-1.69886
29.63444	3.99930	-1.69886
29.63863	3.99930	-1.69886
29.64281	3.99930	-1.69886
29.64700	3.99930	-1.69886
29.65120	3.99930	-1.69886
29.65546	3.99930	-1.69886
29.65972	3.99930	-1.69886
29.66392	3.99930	-1.69886
29.66812	3.99930	-1.69886
29.67231	3.99930	-1.69886
29.67649	3.99930	-1.69886
29.68068	3.99930	-1.69886
29.68486	3.99930	-1.69886
29.68916	3.99930	-1.69886
29.69347	3.99930	-1.69886
29.69766	3.99930	-1.69886
29.70185	3.99930	-1.69886
29.70603	3.99930	-1.69886
29.71022	3.99930	-1.69886
29.71440	3.99930	-1.69886
29.71884	3.99930	-1.69886
29.72304	3.99930	-1.69886
29.72724	3.99930	-1.69886
29.73143	3.99930	-1.69886
29.73562	3.99930	-1.69886
29.73980	3.99930	-1.69886
29.74399	3.99930	-1.69886
29.74828	3.99930	-1.69886
29.75256	3.99930	-1.69886
29.75676	3.99930	-1.69886
29.76094	3.99930	-1.69886
29.76513	3.99930	-1.69886
29.76932	3.99930	-1.69886
29.77350	3.99930	-1.69886
29.77769	3.99930	-1.69886
29.78198	3.97733	-1.69886
29.78619	3.99930	-1.69886
29.79038	3.99930	-1.69886
29.79467	3.99930	-1.69886
29.79886	4.02127	-1.69886
29.80305	3.99930	-1.69886
29.80724	3.99930	-1.69886
29.81150	3.99930	-1.69886
29.81576	3.99930	-1.69886
29.81996	4.02127	-1.69886
29.82415	3.99930	-1.69886
29.82833	4.02127	-1.69886
29.83252	4.02127	-1.69886
29.83671	4.02127	-1.69886
29.84089	4.02127	-1.69886
29.84518	4.02127	-1.69886
29.84938	4.02127	-1.69886
29.85357	4.02127	-1.69886
29.85776	4.02127	-1.69886
29.86194	4.02127	-1.69886
29.86612	4.02127	-1.69886
29.87031	4.02127	-1.69886
29.87456	4.02127	-1.69886
29.87882	4.02127	-1.69886
29.88301	4.02127	-1.69886
29.88721	4.02127	-1.69886
29.89139	4.04325	-1.69886
29.89568	4.04325	-1.69886
29.89987	4.04325	-1.69886
29.90405	4.04325	-1.69886
29.90835	4.04325	-1.69886
29.91255	4.04325	-1.69886
29.91674	4.04325	-1.69886
29.92092	4.04325	-1.69886
29.92511	4.04325	-1.69886
29.92930	4.04325	-1.69886
29.93349	4.04325	-1.69886
29.93774	4.06522	-1.69886
29.94200	4.06522	-1.69886
29.94620	4.06522	-1.69886
29.95039	4.06522	-1.69886
29.95457	4.06522	-1.69886
29.95875	4.06522	-1.69886
29.96294	4.08719	-1.69886
29.96713	4.08719	-1.69886
29.97143	4.08719	-1.69886
29.97563	4.08719	-1.69886
29.97982	4.08719	-1.69886
29.98400	4.08719	-1.69886
29.98819	4.08719	-1.69886
29.99237	4.08719	-1.69886
29.99666	4.10916	-1.69886
