Time (s)   roll (deg)   Delta
0.00039	-8.26144	11.27051
0.00462	-8.26144	11.27051
0.00883	-8.23947	11.27051
0.01301	-8.23947	11.27051
0.01720	-8.23947	11.27051
0.02151	-8.23947	11.27051
0.02576	-8.23947	11.27051
0.02995	-8.23947	11.27051
0.03413	-8.21750	11.27051
0.03832	-8.21750	11.27051
0.04251	-8.21750	11.27051
0.04669	-8.21750	11.27051
0.05095	-8.21750	11.27051
0.05522	-8.21750	11.27051
0.05942	-8.19552	11.27051
0.06361	-8.19552	11.27051
0.06779	-8.19552	11.27051
0.07198	-8.19552	11.27051
0.07616	-8.19552	11.27051
0.08041	-8.19552	11.27051
0.08469	-8.19552	11.27051
0.08888	-8.19552	11.27051
0.09306	-8.19552	11.27051
0.09724	-8.19552	11.27051
0.10151	-8.19552	11.27051
0.10571	-8.19552	11.27051
0.10989	-8.19552	11.27051
0.11418	-8.19552	11.27051
0.11838	-8.19552	11.27051
0.12257	-8.21750	11.27051
0.12675	-8.21750	11.27051
0.13093	-8.19552	11.27051
0.13510	-8.21750	11.27051
0.13928	-8.21750	11.27051
0.14366	-8.21750	11.27051
0.14786	-8.23947	11.27051
0.15204	-8.21750	11.27051
0.15621	-8.21750	11.27051
0.16039	-8.23947	11.27051
0.16457	-8.23947	11.27051
0.16874	-8.23947	11.27051
0.17301	-8.26144	11.27051
0.17726	-8.26144	11.27051
0.18144	-8.26144	11.27051
0.18564	-8.28341	11.27051
0.18983	-8.28341	11.27051
0.19402	-8.30539	11.27051
0.19820	-8.30539	11.27051
0.20268	-8.32736	11.27051
0.20699	-8.34933	11.27051
0.21122	-8.34933	11.27051
0.21541	-8.34933	11.27051
0.21960	-8.37131	11.27051
0.22379	-8.39328	11.27051
0.22797	-8.39328	11.27051
0.23215	-8.39328	11.27051
0.23645	-8.41525	11.27051
0.24066	-8.43722	11.27051
0.24485	-8.45920	11.27051
0.24903	-8.48117	11.27051
0.25321	-8.50314	11.27051
0.25740	-8.50314	11.27051
0.26158	-8.50314	11.27051
0.26598	-8.52511	11.27051
0.27018	-8.56906	11.27051
0.27438	-8.59103	11.27051
0.27856	-8.59103	11.27051
0.28274	-8.61300	11.27051
0.28693	-8.61300	11.27051
0.29111	-8.63498	11.27051
0.29537	-8.67892	11.27051
0.29963	-8.70089	11.27051
0.30392	-8.72287	11.27051
0.30814	-8.74484	11.27051
0.31235	-8.74484	11.27051
0.31654	-8.78879	11.27051
0.32073	-8.81076	11.27051
0.32502	-8.83273	11.27051
0.32931	-8.87668	11.27051
0.33352	-8.89865	11.27051
0.33772	-8.89865	11.27051
0.34192	-8.94259	11.27051
0.34611	-8.96457	11.27051
0.35031	-9.00851	11.27051
0.35450	-9.03048	11.27051
0.35882	-9.07443	11.27051
0.36302	-9.07443	11.27051
0.36721	-9.11838	11.27051
0.37141	-9.14035	11.27051
0.37561	-9.16232	11.27051
0.37980	-9.22824	11.27051
0.38399	-9.25021	11.27051
0.38842	-9.29416	11.27051
0.39263	-9.29416	11.27051
0.39681	-9.33810	11.27051
0.40100	-9.36007	11.27051
0.40532	-9.40402	11.27051
0.40952	-9.44797	11.27051
0.41372	-9.49191	11.27051
0.41800	-9.53586	11.27051
0.42229	-9.53586	11.27051
0.42650	-9.57980	11.27051
0.43070	-9.62375	11.27051
0.43490	-9.66769	11.27051
0.43908	-9.71164	11.27051
0.44327	-9.71164	11.27051
0.44753	-9.75558	11.27051
0.45182	-9.79953	11.27051
0.45603	-9.82150	11.27051
0.46022	-9.88742	11.27051
0.46440	-9.93136	11.27051
0.46859	-9.97531	11.27051
0.47277	-9.97531	11.27051
0.47696	-10.01925	11.27051
0.48126	-10.06320	11.27051
0.48546	-10.12912	11.27051
0.48965	-10.17306	11.27051
0.49384	-10.21701	11.27051
0.49803	-10.26095	11.27051
0.50221	-10.26095	11.27051
0.50656	-10.30490	11.27051
0.51104	-10.37082	11.27051
0.51525	-10.41476	11.27051
0.51944	-10.48068	11.27051
0.52363	-10.52463	11.27051
0.52782	-10.52463	11.27051
0.53200	-10.56857	11.27051
0.53619	-10.63449	11.27051
0.54045	-10.67843	11.27051
0.54472	-10.72238	11.27051
0.54892	-10.76632	11.27051
0.55310	-10.76632	11.27051
0.55729	-10.83224	11.27051
0.56148	-10.89816	11.27051
0.56566	-10.94211	11.27051
0.56992	-11.00802	11.27051
0.57420	-11.05197	11.27051
0.57841	-11.05197	11.27051
0.58259	-11.11789	11.27051
0.58679	-11.16183	11.27051
0.59097	-11.22775	11.27051
0.59516	-11.29367	11.27051
0.59934	-11.33761	11.27051
0.60363	-11.33761	11.27051
0.60796	-11.40353	11.27051
0.61216	-11.44748	11.27051
0.61634	-11.51339	11.27051
0.62053	-11.57931	11.27051
0.62471	-11.62326	11.27051
0.62890	-11.62326	11.27051
0.63330	-11.68918	11.27051
0.63750	-11.73312	11.27051
0.64169	-11.79904	11.27051
0.64588	-11.86496	11.27051
0.65006	-11.93088	11.27051
0.65425	-11.93088	11.27051
0.65840	-11.97482	11.27051
0.66267	-12.01877	11.27051
0.66693	-12.08468	11.27051
0.67112	-12.12863	11.27051
0.67531	-12.19455	11.27051
0.67950	-12.26047	11.27051
0.68368	-12.26047	11.27051
0.68787	-12.30441	11.27051
0.69213	-12.37033	11.27051
0.69640	-12.43625	11.27051
0.70060	-12.48019	11.27051
0.70480	-12.54611	11.27051
0.70910	-12.59006	11.27051
0.71329	-12.59006	11.27051
0.71748	-12.65597	11.27051
0.72167	-12.72189	11.27051
0.72596	-12.78781	11.27051
0.73017	-12.83175	11.27051
0.73436	-12.83175	11.27051
0.73855	-12.89767	11.27051
0.74274	-12.96359	11.27051
0.74692	-13.00754	11.27051
0.75110	-13.07345	11.27051
0.75550	-13.11740	11.27051
0.75970	-13.18332	11.27051
0.76388	-13.18332	11.27051
0.76807	-13.24923	11.27051
0.77225	-13.31515	11.27051
0.77643	-13.35910	11.27051
0.78062	-13.42502	11.27051
0.78490	-13.46896	11.27051
0.78917	-13.46896	11.27051
0.79337	-13.53488	11.27051
0.79756	-13.60080	11.27051
0.80174	-13.64474	11.27051
0.80594	-13.71066	11.27051
0.81023	-13.75461	11.27051
0.81448	-13.82052	11.27051
0.81876	-13.82052	11.27051
0.82296	-13.88644	11.27051
0.82715	-13.93039	11.27051
0.83133	-13.99631	11.27051
0.83552	-14.04025	11.27051
0.83970	-14.04025	11.27051
0.84388	-14.10617	11.27051
0.84818	-14.17209	11.27051
0.85238	-14.23800	11.27051
0.85657	-14.28195	11.27051
0.86075	-14.34787	11.27051
0.86494	-14.34787	11.27051
0.86912	-14.39181	11.27051
0.87330	-14.45773	11.27051
0.87770	-14.50168	11.27051
0.88190	-14.56759	11.27051
0.88608	-14.61154	11.27051
0.89028	-14.67746	11.27051
0.89446	-14.67746	11.27051
0.89864	-14.72140	11.27051
0.90283	-14.78732	11.27051
0.90712	-14.83127	11.27051
0.91149	-14.89718	11.27051
0.91568	-14.89718	11.27051
0.91987	-14.98507	11.27051
0.92405	-14.98507	11.27051
0.92823	-15.05099	11.27051
0.93242	-15.09494	11.27051
0.93667	-15.16086	11.27051
0.94095	-15.20480	11.27051
0.94516	-15.20480	11.27051
0.94935	-15.24875	11.27051
0.95353	-15.33664	11.27051
0.95772	-15.35861	11.27051
0.96190	-15.42453	11.27051
0.96608	-15.46847	11.27051
0.97039	-15.51242	11.27051
0.97459	-15.51242	11.27051
0.97878	-15.57834	11.27051
0.98297	-15.62228	11.27051
0.98715	-15.66623	11.27051
0.99134	-15.73214	11.27051
0.99552	-15.73214	11.27051
0.99993	-15.77609	11.27051
1.00413	-15.82004	11.27051
1.00834	-15.86398	11.27051
1.01264	-15.90793	11.27051
1.01683	-15.95187	11.27051
1.02102	-15.99582	11.27051
1.02520	-15.99582	11.27051
1.02947	-16.03976	11.27051
1.03372	-16.10568	11.27051
1.03792	-16.14963	11.27051
1.04211	-16.19357	11.27051
1.04631	-16.23752	11.27051
1.05049	-16.25949	11.27051
1.05468	-16.25949	11.27051
1.05893	-16.32541	11.27051
1.06320	-16.36935	11.27051
1.06740	-16.41330	11.27051
1.07159	-16.45724	11.27051
1.07578	-16.47922	11.27051
1.07996	-16.47922	11.27051
1.08415	-16.54513	11.27051
1.08833	-16.56711	11.27051
1.09263	-16.63302	11.27051
1.09683	-16.65500	11.27051
1.10102	-16.65500	11.27051
1.10525	-16.69894	11.27051
1.10944	-16.74289	11.27051
1.11373	-16.76486	11.27051
1.11793	-16.83078	11.27051
1.12235	-16.85275	11.27051
1.12656	-16.85275	11.27051
1.13075	-16.89670	11.27051
1.13493	-16.91867	11.27051
1.13912	-16.96261	11.27051
1.14330	-16.98459	11.27051
1.14749	-17.02853	11.27051
1.15175	-17.07248	11.27051
1.15601	-17.07248	11.27051
1.16020	-17.09445	11.27051
1.16439	-17.13839	11.27051
1.16857	-17.16037	11.27051
1.17276	-17.20431	11.27051
1.17694	-17.22629	11.27051
1.18119	-17.24826	11.27051
1.18547	-17.24826	11.27051
1.18967	-17.29220	11.27051
1.19386	-17.31418	11.27051
1.19805	-17.35812	11.27051
1.20223	-17.38009	11.27051
1.20642	-17.38009	11.27051
1.21062	-17.40207	11.27051
1.21502	-17.44601	11.27051
1.21922	-17.44601	11.27051
1.22341	-17.48996	11.27051
1.22759	-17.51193	11.27051
1.23178	-17.53390	11.27051
1.23596	-17.53390	11.27051
1.24015	-17.55588	11.27051
1.24455	-17.57785	11.27051
1.24875	-17.59982	11.27051
1.25294	-17.62179	11.27051
1.25713	-17.64377	11.27051
1.26131	-17.66574	11.27051
1.26549	-17.66574	11.27051
1.26968	-17.68771	11.27051
1.27394	-17.70968	11.27051
1.27820	-17.73166	11.27051
1.28240	-17.75363	11.27051
1.28659	-17.77560	11.27051
1.29077	-17.77560	11.27051
1.29496	-17.79757	11.27051
1.29914	-17.81955	11.27051
1.30339	-17.81955	11.27051
1.30768	-17.84152	11.27051
1.31190	-17.86349	11.27051
1.31620	-17.86349	11.27051
1.32039	-17.86349	11.27051
1.32459	-17.88547	11.27051
1.32878	-17.88547	11.27051
1.33297	-17.90744	11.27051
1.33728	-17.90744	11.27051
1.34149	-17.90744	11.27051
1.34568	-17.95138	11.27051
1.34987	-17.92941	11.27051
1.35406	-17.95138	11.27051
1.35824	-17.97336	11.27051
1.36240	-17.97336	11.27051
1.36681	-17.97336	11.27051
1.37105	-17.99533	11.27051
1.37525	-17.99533	11.27051
1.37944	-17.99533	11.27051
1.38363	-17.99533	11.27051
1.38781	-18.01730	11.27051
1.39200	-18.01730	11.27051
1.39626	-18.01730	11.27051
1.40053	-18.01730	11.27051
1.40473	-18.03927	11.27051
1.40895	-18.03927	11.27051
1.41315	-18.03927	11.27051
1.41745	-18.03927	11.27051
1.42163	-18.03927	11.27051
1.42591	-18.03927	11.27051
1.43021	-18.06125	11.27051
1.43443	-18.03927	11.27051
1.43863	-18.06125	11.27051
1.44282	-18.03927	11.27051
1.44701	-18.03927	11.27051
1.45119	-18.03927	11.27051
1.45538	-18.03927	11.27051
1.45967	-18.03927	11.27051
1.46387	-18.03927	11.27051
1.46806	-18.03927	11.27051
1.47225	-18.03927	11.27051
1.47644	-18.03927	11.27051
1.48063	-18.03927	11.27051
1.48483	-18.03927	11.27051
1.48929	-18.03927	11.27051
1.49351	-18.01730	11.27051
1.49770	-18.01730	11.27051
1.50189	-18.01730	11.27051
1.50609	-18.01730	11.27051
1.51030	-18.01730	11.27051
1.51449	-17.99533	11.27051
1.51887	-17.99533	11.27051
1.52313	-17.99533	11.27051
1.52732	-17.97336	11.27051
1.53151	-17.97336	11.27051
1.53569	-17.97336	11.27051
1.53988	-17.95138	11.27051
1.54406	-17.95138	11.27051
1.54832	-17.95138	11.27051
1.55260	-17.95138	11.27051
1.55680	-17.95138	11.27051
1.56099	-17.92941	11.27051
1.56517	-17.90744	11.27051
1.56936	-17.90744	11.27051
1.57354	-17.88547	11.27051
1.57773	-17.88547	11.27051
1.58203	-17.88547	11.27051
1.58623	-17.86349	11.27051
1.59041	-17.86349	11.27051
1.59460	-17.84152	11.27051
1.59879	-17.81955	11.27051
1.60297	-17.81955	11.27051
1.60717	-17.81955	11.27051
1.61161	-17.79757	11.27051
1.61582	-17.79757	11.27051
1.62012	-17.77560	11.27051
1.62431	-17.75363	11.27051
1.62849	-17.75363	11.27051
1.63268	-17.75363	11.27051
1.63686	-17.73166	11.27051
1.64113	-17.70968	11.27051
1.64538	-17.68771	11.27051
1.64958	-17.68771	11.27051
1.65376	-17.66574	11.27051
1.65795	-17.66574	11.27051
1.66213	-17.64377	11.27051
1.66633	-17.62179	11.27051
1.67059	-17.59982	11.27051
1.67486	-17.59982	11.27051
1.67906	-17.57785	11.27051
1.68324	-17.57785	11.27051
1.68742	-17.55588	11.27051
1.69161	-17.53390	11.27051
1.69580	-17.51193	11.27051
1.69999	-17.51193	11.27051
1.70428	-17.48996	11.27051
1.70850	-17.46798	11.27051
1.71269	-17.46798	11.27051
1.71688	-17.44601	11.27051
1.72117	-17.42404	11.27051
1.72535	-17.40207	11.27051
1.72954	-17.38009	11.27051
1.73393	-17.38009	11.27051
1.73814	-17.33615	11.27051
1.74234	-17.33615	11.27051
1.74653	-17.31418	11.27051
1.75071	-17.29220	11.27051
1.75490	-17.27023	11.27051
1.75908	-17.27023	11.27051
1.76334	-17.27023	11.27051
1.76760	-17.22629	11.27051
1.77179	-17.20431	11.27051
1.77597	-17.20431	11.27051
1.78016	-17.18234	11.27051
1.78434	-17.16037	11.27051
1.78852	-17.13839	11.27051
1.79277	-17.13839	11.27051
1.79706	-17.11642	11.27051
1.80125	-17.07248	11.27051
1.80544	-17.05050	11.27051
1.80964	-17.02853	11.27051
1.81383	-17.00656	11.27051
1.81801	-17.00656	11.27051
1.82231	-17.00656	11.27051
1.82661	-16.98459	11.27051
1.83081	-16.94064	11.27051
1.83499	-16.94064	11.27051
1.83918	-16.89670	11.27051
1.84336	-16.89670	11.27051
1.84755	-16.87472	11.27051
1.85173	-16.85275	11.27051
1.85612	-16.83078	11.27051
1.86032	-16.80881	11.27051
1.86451	-16.78683	11.27051
1.86869	-16.78683	11.27051
1.87288	-16.74289	11.27051
1.87706	-16.74289	11.27051
1.88125	-16.72091	11.27051
1.88552	-16.67697	11.27051
1.88978	-16.65500	11.27051
1.89398	-16.65500	11.27051
1.89817	-16.63302	11.27051
1.90236	-16.61105	11.27051
1.90656	-16.58908	11.27051
1.91076	-16.56711	11.27051
1.91503	-16.54513	11.27051
1.91931	-16.52316	11.27051
1.92361	-16.52316	11.27051
1.92780	-16.50119	11.27051
1.93198	-16.47922	11.27051
1.93617	-16.45724	11.27051
1.94035	-16.43527	11.27051
1.94453	-16.41330	11.27051
1.94882	-16.41330	11.27051
1.95303	-16.39132	11.27051
1.95724	-16.36935	11.27051
1.96143	-16.32541	11.27051
1.96562	-16.30343	11.27051
1.96981	-16.28146	11.27051
1.97399	-16.28146	11.27051
1.97845	-16.25949	11.27051
1.98266	-16.25949	11.27051
1.98685	-16.21554	11.27051
1.99104	-16.19357	11.27051
1.99523	-16.19357	11.27051
1.99942	-16.14963	11.27051
2.00359	-16.14963	11.27051
2.00796	-16.12765	11.27051
2.01221	-16.12765	11.27051
2.01638	-16.08371	11.27051
2.02055	-16.06173	11.27051
2.02480	-16.03976	11.27051
2.02896	-16.01779	11.27051
2.03313	-16.01779	11.27051
2.03736	-16.01779	11.27051
2.04161	-15.97384	11.27051
2.04578	-15.95187	11.27051
2.04995	-15.92990	11.27051
2.05411	-15.92990	11.27051
2.05828	-15.90793	11.27051
2.06245	-15.88595	11.27051
2.06662	-15.86398	11.27051
2.07089	-15.84201	11.27051
2.07509	-15.82004	11.27051
2.07925	-15.82004	11.27051
2.08342	-15.82004	11.27051
2.08758	-15.79806	11.27051
2.09175	-15.75412	11.27051
2.09591	-15.73214	11.27051
2.10019	-15.71017	11.27051
2.10440	-15.71017	11.27051
2.10861	-15.71017	11.27051
2.11281	-15.66623	11.27051
2.11699	-15.66623	11.27051
2.12118	-15.62228	11.27051
2.12547	-15.62228	11.27051
2.12974	-15.62228	11.27051
2.13400	-15.60031	11.27051
2.13820	-15.55636	11.27051
2.14240	-15.55636	11.27051
2.14658	-15.53439	11.27051
2.15077	-15.51242	11.27051
2.15495	-15.51242	11.27051
2.15920	-15.49045	11.27051
2.16347	-15.49045	11.27051
2.16767	-15.46847	11.27051
2.17186	-15.44650	11.27051
2.17604	-15.42453	11.27051
2.18023	-15.42453	11.27051
2.18441	-15.38058	11.27051
2.18862	-15.38058	11.27051
2.19293	-15.35861	11.27051
2.19713	-15.33664	11.27051
2.20133	-15.31466	11.27051
2.20552	-15.29269	11.27051
2.20972	-15.29269	11.27051
2.21392	-15.29269	11.27051
2.21810	-15.27072	11.27051
2.22254	-15.24875	11.27051
2.22685	-15.22677	11.27051
2.23103	-15.20480	11.27051
2.23522	-15.20480	11.27051
2.23941	-15.18283	11.27051
2.24360	-15.16086	11.27051
2.24778	-15.16086	11.27051
2.25205	-15.13888	11.27051
2.25631	-15.11691	11.27051
2.26051	-15.09494	11.27051
2.26469	-15.09494	11.27051
2.26888	-15.07297	11.27051
2.27306	-15.05099	11.27051
2.27725	-15.05099	11.27051
2.28151	-15.02902	11.27051
2.28579	-15.00705	11.27051
2.29000	-14.98507	11.27051
2.29420	-14.98507	11.27051
2.29840	-14.98507	11.27051
2.30259	-14.96310	11.27051
2.30682	-14.94113	11.27051
2.31101	-14.91916	11.27051
2.31532	-14.91916	11.27051
2.31954	-14.89718	11.27051
2.32373	-14.89718	11.27051
2.32802	-14.87521	11.27051
2.33220	-14.85324	11.27051
2.33638	-14.83127	11.27051
2.34057	-14.83127	11.27051
2.34496	-14.83127	11.27051
2.34917	-14.80929	11.27051
2.35335	-14.78732	11.27051
2.35754	-14.78732	11.27051
2.36173	-14.74338	11.27051
2.36591	-14.74338	11.27051
2.37010	-14.74338	11.27051
2.37439	-14.72140	11.27051
2.37865	-14.72140	11.27051
2.38286	-14.69943	11.27051
2.38704	-14.67746	11.27051
2.39123	-14.67746	11.27051
2.39541	-14.67746	11.27051
2.39960	-14.63351	11.27051
2.40385	-14.63351	11.27051
2.40816	-14.61154	11.27051
2.41237	-14.61154	11.27051
2.41656	-14.61154	11.27051
2.42075	-14.61154	11.27051
2.42494	-14.58957	11.27051
2.42923	-14.56759	11.27051
2.43344	-14.56759	11.27051
2.43777	-14.54562	11.27051
2.44197	-14.54562	11.27051
2.44624	-14.54562	11.27051
2.45043	-14.52365	11.27051
2.45462	-14.52365	11.27051
2.45882	-14.50168	11.27051
2.46300	-14.50168	11.27051
2.46748	-14.47970	11.27051
2.47169	-14.45773	11.27051
2.47588	-14.45773	11.27051
2.48007	-14.45773	11.27051
2.48426	-14.43576	11.27051
2.48844	-14.43576	11.27051
2.49263	-14.41379	11.27051
2.49689	-14.41379	11.27051
2.50116	-14.41379	11.27051
2.50536	-14.41379	11.27051
2.50958	-14.39181	11.27051
2.51377	-14.39181	11.27051
2.51796	-14.36984	11.27051
2.52215	-14.36984	11.27051
2.52643	-14.36984	11.27051
2.53082	-14.34787	11.27051
2.53501	-14.34787	11.27051
2.53920	-14.34787	11.27051
2.54339	-14.32589	11.27051
2.54757	-14.34787	11.27051
2.55176	-14.30392	11.27051
2.55595	-14.30392	11.27051
2.56024	-14.32589	11.27051
2.56444	-14.30392	11.27051
2.56863	-14.30392	11.27051
2.57281	-14.30392	11.27051
2.57700	-14.28195	11.27051
2.58119	-14.28195	11.27051
2.58537	-14.28195	11.27051
2.58977	-14.28195	11.27051
2.59398	-14.25998	11.27051
2.59817	-14.25998	11.27051
2.60238	-14.23800	11.27051
2.60657	-14.25998	11.27051
2.61077	-14.25998	11.27051
2.61497	-14.23800	11.27051
2.61926	-14.23800	11.27051
2.62354	-14.23800	11.27051
2.62774	-14.23800	11.27051
2.63203	-14.23800	11.27051
2.63622	-14.23800	11.27051
2.64040	-14.21603	11.27051
2.64459	-14.21603	11.27051
2.64884	-14.21603	11.27051
2.65312	-14.21603	11.27051
2.65732	-14.21603	11.27051
2.66151	-14.21603	11.27051
2.66570	-14.21603	11.27051
2.66988	-14.21603	11.27051
2.67407	-14.19406	11.27051
2.67825	-14.19406	11.27051
2.68252	-14.19406	11.27051
2.68672	-14.19406	11.27051
2.69091	-14.19406	11.27051
2.69509	-14.19406	11.27051
2.69928	-14.19406	11.27051
2.70346	-14.21603	11.27051
2.70767	-14.21603	11.27051
2.71209	-14.17209	11.27051
2.71630	-14.17209	11.27051
2.72048	-14.17209	11.27051
2.72467	-14.17209	11.27051
2.72886	-14.19406	11.27051
2.73314	-14.17209	11.27051
2.73733	-14.17209	11.27051
2.74162	-14.17209	11.27051
2.74588	-14.17209	11.27051
2.75007	-14.17209	11.27051
2.75428	-14.17209	11.27051
2.75847	-14.17209	11.27051
2.76265	-14.17209	11.27051
2.76684	-14.17209	11.27051
2.77110	-14.17209	11.27051
2.77537	-14.17209	11.27051
2.77957	-14.15011	11.27051
2.78375	-14.17209	11.27051
2.78794	-14.17209	11.27051
2.79212	-14.17209	11.27051
2.79631	-14.15011	11.27051
2.80049	-14.17209	11.27051
2.80478	-14.17209	11.27051
2.80901	-14.17209	11.27051
2.81320	-14.17209	11.27051
2.81740	-14.15011	11.27051
2.82158	-14.15011	11.27051
2.82577	-14.17209	11.27051
2.82995	-14.17209	11.27051
2.83447	-14.17209	11.27051
2.83868	-14.17209	11.27051
2.84287	-14.17209	11.27051
2.84705	-14.17209	11.27051
2.85124	-14.17209	11.27051
2.85542	-14.17209	11.27051
2.85961	-14.17209	11.27051
2.86388	-14.17209	11.27051
2.86813	-14.17209	11.27051
2.87233	-14.17209	11.27051
2.87651	-14.17209	11.27051
2.88070	-14.17209	11.27051
2.88488	-14.19406	11.27051
2.88907	-14.17209	11.27051
2.89331	-14.19406	11.27051
2.89758	-14.19406	11.27051
2.90178	-14.17209	11.27051
2.90597	-14.19406	11.27051
2.91018	-14.19406	11.27051
2.91438	-14.19406	11.27051
2.91858	-14.19406	11.27051
2.92276	-14.19406	11.27051
2.92706	-14.17209	11.27051
2.93126	-14.19406	11.27051
2.93555	-14.19406	11.27051
2.93973	-14.19406	11.27051
2.94394	-14.19406	11.27051
2.94813	-14.19406	11.27051
2.95232	-14.19406	11.27051
2.95672	-14.21603	11.27051
2.96094	-14.21603	11.27051
2.96513	-14.21603	11.27051
2.96932	-14.21603	11.27051
2.97351	-14.21603	11.27051
2.97769	-14.21603	11.27051
2.98188	-14.23800	11.27051
2.98615	-14.21603	11.27051
2.99043	-14.21603	11.27051
2.99462	-14.21603	11.27051
2.99881	-14.21603	11.27051
3.00299	-14.21603	11.27051
3.00718	-14.23800	11.27051
3.01138	-14.23800	11.27051
3.01565	-14.23800	11.27051
3.01995	-14.23800	11.27051
3.02415	-14.23800	11.27051
3.02834	-14.23800	11.27051
3.03253	-14.23800	11.27051
3.03681	-14.23800	11.27051
3.04100	-14.23800	11.27051
3.04518	-14.23800	11.27051
3.04948	-14.23800	11.27051
3.05368	-14.25998	11.27051
3.05787	-14.25998	11.27051
3.06205	-14.25998	11.27051
3.06624	-14.23800	11.27051
3.07040	-14.25998	11.27051
3.07459	-14.25998	11.27051
3.07897	-14.23800	11.27051
3.08324	-14.23800	11.27051
3.08743	-14.25998	11.27051
3.09161	-14.25998	11.27051
3.09580	-14.25998	11.27051
3.09998	-14.25998	11.27051
3.10417	-14.25998	11.27051
3.10845	-14.25998	11.27051
3.11272	-14.25998	11.27051
3.11692	-14.25998	11.27051
3.12111	-14.25998	11.27051
3.12529	-14.25998	11.27051
3.12948	-14.25998	11.27051
3.13366	-14.25998	11.27051
3.13801	-14.25998	11.27051
3.14230	-14.25998	11.27051
3.14650	-14.25998	11.27051
3.15069	-14.25998	11.27051
3.15487	-14.28195	11.27051
3.15906	-14.28195	11.27051
3.16324	-14.25998	11.27051
3.16743	-14.25998	11.27051
3.17172	-14.28195	11.27051
3.17592	-14.28195	11.27051
3.18011	-14.28195	11.27051
3.18429	-14.25998	11.27051
3.18848	-14.25998	11.27051
3.19266	-14.28195	11.27051
3.19684	-14.28195	11.27051
3.20122	-14.25998	11.27051
3.20544	-14.28195	11.27051
3.20965	-14.28195	11.27051
3.21385	-14.28195	11.27051
3.21804	-14.28195	11.27051
3.22223	-14.28195	11.27051
3.22640	-14.25998	11.27051
3.23069	-14.28195	11.27051
3.23496	-14.28195	11.27051
3.23928	-14.28195	11.27051
3.24347	-14.28195	11.27051
3.24766	-14.28195	11.27051
3.25185	-14.28195	11.27051
3.25604	-14.28195	11.27051
3.26028	-14.28195	11.27051
3.26456	-14.28195	11.27051
3.26876	-14.28195	11.27051
3.27295	-14.25998	11.27051
3.27715	-14.28195	11.27051
3.28133	-14.25998	11.27051
3.28552	-14.28195	11.27051
3.28972	-14.28195	11.27051
3.29401	-14.28195	11.27051
3.29822	-14.28195	11.27051
3.30241	-14.28195	11.27051
3.30660	-14.25998	11.27051
3.31086	-14.28195	11.27051
3.31507	-14.28195	11.27051
3.31927	-14.28195	11.27051
3.32369	-14.28195	11.27051
3.32791	-14.28195	11.27051
3.33211	-14.25998	11.27051
3.33630	-14.28195	11.27051
3.34060	-14.25998	11.27051
3.34480	-14.28195	11.27051
3.34900	-14.28195	11.27051
3.35333	-14.25998	11.27051
3.35761	-14.25998	11.27051
3.36181	-14.25998	11.27051
3.36600	-14.25998	11.27051
3.37021	-14.28195	11.27051
3.37441	-14.28195	11.27051
3.37860	-14.25998	11.27051
3.38286	-14.25998	11.27051
3.38715	-14.25998	11.27051
3.39136	-14.25998	11.27051
3.39555	-14.25998	11.27051
3.39974	-14.25998	11.27051
3.40393	-14.25998	11.27051
3.40818	-14.25998	11.27051
3.41239	-14.25998	11.27051
3.41671	-14.25998	11.27051
3.42093	-14.25998	11.27051
3.42513	-14.25998	11.27051
3.42932	-14.25998	11.27051
3.43353	-14.25998	11.27051
3.43772	-14.25998	11.27051
3.44203	-14.25998	11.27051
3.44644	-14.25998	11.27051
3.45065	-14.25998	11.27051
3.45484	-14.25998	11.27051
3.45903	-14.25998	11.27051
3.46322	-14.25998	11.27051
3.46742	-14.25998	11.27051
3.47161	-14.25998	11.27051
3.47592	-14.25998	11.27051
3.48020	-14.25998	11.27051
3.48440	-14.25998	11.27051
3.48859	-14.25998	11.27051
3.49278	-14.25998	11.27051
3.49697	-14.25998	11.27051
3.50116	-14.25998	11.27051
3.50541	-14.25998	11.27051
3.50972	-14.25998	11.27051
3.51393	-14.25998	11.27051
3.51813	-14.25998	11.27051
3.52234	-14.25998	11.27051
3.52653	-14.25998	11.27051
3.53071	-14.25998	11.27051
3.53490	-14.25998	11.27051
3.53919	-14.25998	11.27051
3.54349	-14.25998	11.27051
3.54768	-14.25998	11.27051
3.55187	-14.25998	11.27051
3.55605	-14.25998	11.27051
3.56024	-14.25998	11.27051
3.56442	-14.25998	11.27051
3.56882	-14.25998	11.27051
3.57303	-14.25998	11.27051
3.57722	-14.25998	11.27051
3.58140	-14.25998	11.27051
3.58559	-14.28195	11.27051
3.58977	-14.28195	11.27051
3.59395	-14.25998	11.27051
3.59823	-14.28195	11.27051
3.60249	-14.28195	11.27051
3.60668	-14.28195	11.27051
3.61088	-14.28195	11.27051
3.61507	-14.28195	11.27051
3.61926	-14.28195	11.27051
3.62344	-14.28195	11.27051
3.62770	-14.28195	11.27051
3.63198	-14.28195	11.27051
3.63617	-14.28195	11.27051
3.64036	-14.28195	11.27051
3.64465	-14.28195	11.27051
3.64883	-14.28195	11.27051
3.65301	-14.28195	11.27051
3.65720	-14.28195	11.27051
3.66149	-14.30392	11.27051
3.66570	-14.30392	11.27051
3.66988	-14.28195	11.27051
3.67407	-14.28195	11.27051
3.67825	-14.28195	11.27051
3.68240	-14.28195	11.27051
3.68658	-14.28195	11.27051
3.69097	-14.30392	11.27051
3.69517	-14.30392	11.27051
3.69936	-14.30392	11.27051
3.70354	-14.30392	11.27051
3.70773	-14.30392	11.27051
3.71193	-14.30392	11.27051
3.71613	-14.30392	11.27051
3.72040	-14.30392	11.27051
3.72467	-14.30392	11.27051
3.72886	-14.30392	11.27051
3.73304	-14.30392	11.27051
3.73723	-14.30392	11.27051
3.74142	-14.30392	11.27051
3.74570	-14.30392	11.27051
3.74995	-14.32589	11.27051
3.75422	-14.32589	11.27051
3.75842	-14.32589	11.27051
3.76261	-14.32589	11.27051
3.76679	-14.30392	11.27051
3.77097	-14.30392	11.27051
3.77516	-14.32589	11.27051
3.77934	-14.32589	11.27051
3.78363	-14.32589	11.27051
3.78783	-14.32589	11.27051
3.79202	-14.32589	11.27051
3.79620	-14.32589	11.27051
3.80039	-14.32589	11.27051
3.80457	-14.32589	11.27051
3.80881	-14.32589	11.27051
3.81321	-14.32589	11.27051
3.81741	-14.32589	11.27051
3.82160	-14.32589	11.27051
3.82579	-14.32589	11.27051
3.82998	-14.32589	11.27051
3.83416	-14.32589	11.27051
3.83836	-14.32589	11.27051
3.84263	-14.32589	11.27051
3.84699	-14.32589	11.27051
3.85119	-14.32589	11.27051
3.85537	-14.32589	11.27051
3.85956	-14.32589	11.27051
3.86374	-14.34787	11.27051
3.86792	-14.34787	11.27051
3.87217	-14.32589	11.27051
3.87644	-14.34787	11.27051
3.88064	-14.34787	11.27051
3.88482	-14.34787	11.27051
3.88901	-14.34787	11.27051
3.89319	-14.34787	11.27051
3.89738	-14.34787	11.27051
3.90156	-14.34787	11.27051
3.90586	-14.34787	11.27051
3.91010	-14.34787	11.27051
3.91430	-14.32589	11.27051
3.91849	-14.34787	11.27051
3.92267	-14.32589	11.27051
3.92686	-14.32589	11.27051
3.93104	-14.32589	11.27051
3.93543	-14.34787	11.27051
3.93965	-14.34787	11.27051
3.94383	-14.34787	11.27051
3.94812	-14.34787	11.27051
3.95231	-14.34787	11.27051
3.95649	-14.34787	11.27051
3.96067	-14.34787	11.27051
3.96494	-14.34787	11.27051
3.96920	-14.32589	11.27051
3.97339	-14.34787	11.27051
3.97758	-14.34787	11.27051
3.98176	-14.34787	11.27051
3.98595	-14.34787	11.27051
3.99013	-14.34787	11.27051
3.99440	-14.34787	11.27051
3.99867	-14.32589	11.27051
4.00287	-14.34787	11.27051
4.00706	-14.34787	11.27051
4.01126	-14.34787	11.27051
4.01545	-14.34787	11.27051
4.01964	-14.34787	11.27051
4.02382	-14.32589	11.27051
4.02812	-14.32589	11.27051
4.03234	-14.32589	11.27051
4.03652	-14.32589	11.27051
4.04071	-14.34787	11.27051
4.04490	-14.34787	11.27051
4.04919	-14.34787	11.27051
4.05337	-14.32589	11.27051
4.05776	-14.32589	11.27051
4.06197	-14.32589	11.27051
4.06616	-14.32589	11.27051
4.07035	-14.34787	11.27051
4.07454	-14.32589	11.27051
4.07872	-14.32589	11.27051
4.08291	-14.32589	11.27051
4.08718	-14.32589	11.27051
4.09145	-14.32589	11.27051
4.09564	-14.32589	11.27051
4.09983	-14.32589	11.27051
4.10402	-14.32589	11.27051
4.10820	-14.32589	11.27051
4.11240	-14.32589	11.27051
4.11666	-14.32589	11.27051
4.12093	-14.32589	11.27051
4.12513	-14.32589	11.27051
4.12932	-14.32589	11.27051
4.13351	-14.32589	11.27051
4.13769	-14.32589	11.27051
4.14188	-14.32589	11.27051
4.14606	-14.32589	11.27051
4.15048	-14.32589	11.27051
4.15468	-14.32589	11.27051
4.15887	-14.32589	11.27051
4.16306	-14.32589	11.27051
4.16724	-14.32589	11.27051
4.17143	-14.32589	11.27051
4.17561	-14.32589	11.27051
4.17999	-14.32589	11.27051
4.18420	-14.32589	11.27051
4.18839	-14.32589	11.27051
4.19257	-14.32589	11.27051
4.19676	-14.32589	11.27051
4.20094	-14.32589	11.27051
4.20513	-14.32589	11.27051
4.20948	-14.32589	11.27051
4.21376	-14.32589	11.27051
4.21795	-14.32589	11.27051
4.22214	-14.32589	11.27051
4.22633	-14.32589	11.27051
4.23052	-14.32589	11.27051
4.23470	-14.32589	11.27051
4.23896	-14.32589	11.27051
4.24324	-14.32589	11.27051
4.24744	-14.32589	11.27051
4.25172	-14.32589	11.27051
4.25591	-14.32589	11.27051
4.26010	-14.32589	11.27051
4.26428	-14.32589	11.27051
4.26847	-14.32589	11.27051
4.27276	-14.32589	11.27051
4.27696	-14.32589	11.27051
4.28115	-14.30392	11.27051
4.28533	-14.32589	11.27051
4.28952	-14.32589	11.27051
4.29370	-14.32589	11.27051
4.29789	-14.32589	11.27051
4.30230	-14.32589	11.27051
4.30651	-14.32589	11.27051
4.31072	-14.30392	11.27051
4.31492	-14.32589	11.27051
4.31910	-14.32589	11.27051
4.32329	-14.32589	11.27051
4.32747	-14.32589	11.27051
4.33174	-14.32589	11.27051
4.33600	-14.32589	11.27051
4.34021	-14.32589	11.27051
4.34439	-14.32589	11.27051
4.34858	-14.32589	11.27051
4.35287	-14.32589	11.27051
4.35705	-14.32589	11.27051
4.36130	-14.32589	11.27051
4.36560	-14.32589	11.27051
4.36981	-14.32589	11.27051
4.37401	-14.32589	11.27051
4.37821	-14.32589	11.27051
4.38240	-14.32589	11.27051
4.38659	-14.32589	11.27051
4.39078	-14.32589	11.27051
4.39512	-14.32589	11.27051
4.39933	-14.32589	11.27051
4.40352	-14.32589	11.27051
4.40772	-14.32589	11.27051
4.41193	-14.32589	11.27051
4.41613	-14.32589	11.27051
4.42032	-14.32589	11.27051
4.42478	-14.32589	11.27051
4.42899	-14.32589	11.27051
4.43321	-14.32589	11.27051
4.43741	-14.34787	11.27051
4.44160	-14.32589	11.27051
4.44578	-14.32589	11.27051
4.44997	-14.32589	11.27051
4.45439	-14.32589	11.27051
4.45864	-14.34787	11.27051
4.46283	-14.32589	11.27051
4.46702	-14.32589	11.27051
4.47120	-14.34787	11.27051
4.47539	-14.32589	11.27051
4.47957	-14.32589	11.27051
4.48383	-14.32589	11.27051
4.48811	-14.34787	11.27051
4.49231	-14.32589	11.27051
4.49649	-14.34787	11.27051
4.50068	-14.34787	11.27051
4.50486	-14.34787	11.27051
4.50904	-14.34787	11.27051
4.51324	-14.34787	11.27051
4.51754	-14.34787	11.27051
4.52176	-14.34787	11.27051
4.52595	-14.34787	11.27051
4.53014	-14.34787	11.27051
4.53434	-14.34787	11.27051
4.53852	-14.34787	11.27051
4.54271	-14.34787	11.27051
4.54711	-14.34787	11.27051
4.55132	-14.34787	11.27051
4.55561	-14.34787	11.27051
4.55980	-14.34787	11.27051
4.56398	-14.34787	11.27051
4.56816	-14.34787	11.27051
4.57235	-14.34787	11.27051
4.57661	-14.34787	11.27051
4.58087	-14.34787	11.27051
4.58506	-14.36984	11.27051
4.58924	-14.34787	11.27051
4.59343	-14.34787	11.27051
4.59761	-14.36984	11.27051
4.60180	-14.34787	11.27051
4.60605	-14.34787	11.27051
4.61036	-14.36984	11.27051
4.61457	-14.36984	11.27051
4.61876	-14.34787	11.27051
4.62295	-14.36984	11.27051
4.62714	-14.36984	11.27051
4.63133	-14.36984	11.27051
4.63551	-14.36984	11.27051
4.63980	-14.36984	11.27051
4.64401	-14.36984	11.27051
4.64819	-14.36984	11.27051
4.65238	-14.36984	11.27051
4.65667	-14.36984	11.27051
4.66085	-14.36984	11.27051
4.66503	-14.36984	11.27051
4.66942	-14.36984	11.27051
4.67363	-14.36984	11.27051
4.67782	-14.36984	11.27051
4.68200	-14.36984	11.27051
4.68620	-14.36984	11.27051
4.69039	-14.36984	11.27051
4.69458	-14.36984	11.27051
4.69885	-14.36984	11.27051
4.70311	-14.36984	11.27051
4.70731	-14.36984	11.27051
4.71151	-14.36984	11.27051
4.71570	-14.36984	11.27051
4.71988	-14.36984	11.27051
4.72407	-14.36984	11.27051
4.72832	-14.36984	11.27051
4.73259	-14.36984	11.27051
4.73679	-14.36984	11.27051
4.74099	-14.36984	11.27051
4.74518	-14.36984	11.27051
4.74937	-14.36984	11.27051
4.75355	-14.36984	11.27051
4.75784	-14.36984	11.27051
4.76219	-14.36984	11.27051
4.76642	-14.36984	11.27051
4.77063	-14.36984	11.27051
4.77482	-14.36984	11.27051
4.77901	-14.36984	11.27051
4.78320	-14.36984	11.27051
4.78739	-14.36984	11.27051
4.79214	-14.36984	11.27051
4.79635	-14.39181	11.27051
4.80054	-14.39181	11.27051
4.80475	-14.36984	11.27051
4.80894	-14.36984	11.27051
4.81314	-14.36984	11.27051
4.81733	-14.36984	11.27051
4.82161	-14.36984	11.27051
4.82590	-14.36984	11.27051
4.83011	-14.36984	11.27051
4.83433	-14.36984	11.27051
4.83854	-14.36984	11.27051
4.84274	-14.36984	11.27051
4.84695	-14.36984	11.27051
4.85274	-14.36984	11.27051
4.85704	-14.36984	11.27051
4.86140	-14.36984	11.27051
4.86563	-14.36984	11.27051
4.86986	-14.36984	11.27051
4.87409	-14.34787	11.27051
4.87833	-14.34787	11.27051
4.88398	-14.36984	11.27051
4.88829	-14.34787	11.27051
4.89250	-14.34787	11.27051
4.89671	-14.34787	11.27051
4.90093	-14.36984	11.27051
4.90513	-14.36984	11.27051
4.90934	-14.36984	11.27051
4.91457	-14.34787	11.27051
4.91891	-14.34787	11.27051
4.92313	-14.34787	11.27051
4.92734	-14.36984	11.27051
4.93154	-14.34787	11.27051
4.93575	-14.34787	11.27051
4.93995	-14.36984	11.27051
4.94568	-14.36984	11.27051
4.94999	-14.34787	11.27051
4.95421	-14.36984	11.27051
4.95842	-14.36984	11.27051
4.96261	-14.34787	11.27051
4.96691	-14.34787	11.27051
4.97111	-14.34787	11.27051
4.97538	-14.34787	11.27051
4.97967	-14.34787	11.27051
4.98387	-14.34787	11.27051
4.98807	-14.34787	11.27051
4.99226	-14.34787	11.27051
4.99646	-14.34787	11.27051
5.00065	-14.34787	11.27051
5.00484	-14.34787	11.27051
5.00915	-14.34787	11.27051
5.01337	-14.34787	11.27051
5.01757	-14.34787	11.27051
5.02176	-14.34787	11.27051
5.02595	-14.34787	11.27051
5.03014	-14.34787	11.27051
5.03434	-14.34787	11.27051
5.03873	-14.34787	11.27051
5.04294	-14.34787	11.27051
5.04712	-14.34787	11.27051
5.05131	-14.34787	11.27051
5.05549	-14.34787	11.27051
5.05968	-14.34787	11.27051
5.06386	-14.34787	11.27051
5.06827	-14.34787	11.27051
5.07253	-14.34787	11.27051
5.07673	-14.34787	11.27051
5.08092	-14.34787	11.27051
5.08510	-14.34787	11.27051
5.08929	-14.34787	11.27051
5.09347	-14.36984	11.27051
5.09772	-14.34787	11.27051
5.10200	-14.34787	11.27051
5.10620	-14.34787	11.27051
5.11041	-14.34787	11.27051
5.11461	-14.34787	11.27051
5.11880	-14.34787	11.27051
5.12298	-14.34787	11.27051
5.12717	-14.36984	11.27051
5.13147	-14.36984	11.27051
5.13567	-14.34787	11.27051
5.13987	-14.36984	11.27051
5.14406	-14.36984	11.27051
5.14824	-14.34787	11.27051
5.15243	-14.36984	11.27051
5.15662	-14.36984	11.27051
5.16101	-14.36984	11.27051
5.16521	-14.36984	11.27051
5.16950	-14.36984	11.27051
5.17369	-14.36984	11.27051
5.17788	-14.36984	11.27051
5.18206	-14.36984	11.27051
5.18625	-14.36984	11.27051
5.19051	-14.36984	11.27051
5.19477	-14.36984	11.27051
5.19897	-14.36984	11.27051
5.20315	-14.39181	11.27051
5.20734	-14.39181	11.27051
5.21155	-14.36984	11.27051
5.21575	-14.36984	11.27051
5.22004	-14.39181	11.27051
5.22434	-14.39181	11.27051
5.22854	-14.39181	11.27051
5.23272	-14.39181	11.27051
5.23691	-14.39181	11.27051
5.24110	-14.39181	11.27051
5.24529	-14.39181	11.27051
5.24947	-14.39181	11.27051
5.25377	-14.39181	11.27051
5.25797	-14.39181	11.27051
5.26215	-14.39181	11.27051
5.26635	-14.41379	11.27051
5.27064	-14.41379	11.27051
5.27482	-14.41379	11.27051
5.27900	-14.41379	11.27051
5.28339	-14.41379	11.27051
5.28760	-14.41379	11.27051
5.29179	-14.41379	11.27051
5.29598	-14.41379	11.27051
5.30017	-14.41379	11.27051
5.30435	-14.43576	11.27051
5.30854	-14.41379	11.27051
5.31285	-14.43576	11.27051
5.31713	-14.43576	11.27051
5.32133	-14.43576	11.27051
5.32552	-14.43576	11.27051
5.32971	-14.43576	11.27051
5.33390	-14.43576	11.27051
5.33809	-14.43576	11.27051
5.34237	-14.43576	11.27051
5.34666	-14.43576	11.27051
5.35085	-14.43576	11.27051
5.35505	-14.43576	11.27051
5.35923	-14.43576	11.27051
5.36342	-14.45773	11.27051
5.36760	-14.45773	11.27051
5.37193	-14.45773	11.27051
5.37625	-14.45773	11.27051
5.38052	-14.45773	11.27051
5.38473	-14.45773	11.27051
5.38892	-14.45773	11.27051
5.39311	-14.45773	11.27051
5.39730	-14.45773	11.27051
5.40149	-14.45773	11.27051
5.40593	-14.45773	11.27051
5.41015	-14.45773	11.27051
5.41437	-14.45773	11.27051
5.41857	-14.47970	11.27051
5.42277	-14.45773	11.27051
5.42697	-14.45773	11.27051
5.43115	-14.45773	11.27051
5.43545	-14.47970	11.27051
5.43973	-14.45773	11.27051
5.44393	-14.47970	11.27051
5.44812	-14.47970	11.27051
5.45230	-14.47970	11.27051
5.45649	-14.47970	11.27051
5.46067	-14.47970	11.27051
5.46494	-14.47970	11.27051
5.46922	-14.47970	11.27051
5.47353	-14.47970	11.27051
5.47771	-14.47970	11.27051
5.48190	-14.47970	11.27051
5.48609	-14.47970	11.27051
5.49028	-14.47970	11.27051
5.49447	-14.47970	11.27051
5.49876	-14.47970	11.27051
5.50297	-14.47970	11.27051
5.50716	-14.50168	11.27051
5.51136	-14.50168	11.27051
5.51556	-14.50168	11.27051
5.51976	-14.50168	11.27051
5.52395	-14.50168	11.27051
5.52837	-14.50168	11.27051
5.53258	-14.50168	11.27051
5.53677	-14.50168	11.27051
5.54096	-14.50168	11.27051
5.54515	-14.50168	11.27051
5.54933	-14.50168	11.27051
5.55352	-14.50168	11.27051
5.55779	-14.52365	11.27051
5.56205	-14.52365	11.27051
5.56624	-14.52365	11.27051
5.57041	-14.52365	11.27051
5.57470	-14.52365	11.27051
5.57888	-14.52365	11.27051
5.58307	-14.52365	11.27051
5.58733	-14.52365	11.27051
5.59160	-14.52365	11.27051
5.59580	-14.52365	11.27051
5.59998	-14.54562	11.27051
5.60417	-14.54562	11.27051
5.60835	-14.54562	11.27051
5.61256	-14.54562	11.27051
5.61676	-14.54562	11.27051
5.62107	-14.54562	11.27051
5.62528	-14.54562	11.27051
5.62947	-14.54562	11.27051
5.63366	-14.54562	11.27051
5.63785	-14.54562	11.27051
5.64203	-14.54562	11.27051
5.64622	-14.56759	11.27051
5.65060	-14.54562	11.27051
5.65481	-14.56759	11.27051
5.65900	-14.56759	11.27051
5.66318	-14.56759	11.27051
5.66737	-14.56759	11.27051
5.67155	-14.56759	11.27051
5.67584	-14.56759	11.27051
5.68011	-14.56759	11.27051
5.68438	-14.56759	11.27051
5.68857	-14.56759	11.27051
5.69276	-14.56759	11.27051
5.69695	-14.58957	11.27051
5.70113	-14.58957	11.27051
5.70532	-14.58957	11.27051
5.70957	-14.58957	11.27051
5.71386	-14.58957	11.27051
5.71809	-14.58957	11.27051
5.72229	-14.58957	11.27051
5.72648	-14.61154	11.27051
5.73067	-14.61154	11.27051
5.73485	-14.61154	11.27051
5.73904	-14.61154	11.27051
5.74333	-14.61154	11.27051
5.74753	-14.61154	11.27051
5.75171	-14.61154	11.27051
5.75596	-14.61154	11.27051
5.76016	-14.61154	11.27051
5.76435	-14.61154	11.27051
5.76854	-14.61154	11.27051
5.77292	-14.61154	11.27051
5.77723	-14.63351	11.27051
5.78142	-14.63351	11.27051
5.78560	-14.63351	11.27051
5.78979	-14.63351	11.27051
5.79397	-14.63351	11.27051
5.79817	-14.63351	11.27051
5.80245	-14.63351	11.27051
5.80672	-14.63351	11.27051
5.81091	-14.65548	11.27051
5.81511	-14.65548	11.27051
5.81929	-14.65548	11.27051
5.82348	-14.63351	11.27051
5.82767	-14.65548	11.27051
5.83192	-14.65548	11.27051
5.83620	-14.65548	11.27051
5.84041	-14.63351	11.27051
5.84460	-14.65548	11.27051
5.84879	-14.65548	11.27051
5.85298	-14.65548	11.27051
5.85717	-14.67746	11.27051
5.86135	-14.65548	11.27051
5.86565	-14.65548	11.27051
5.86985	-14.65548	11.27051
5.87404	-14.65548	11.27051
5.87834	-14.65548	11.27051
5.88253	-14.67746	11.27051
5.88671	-14.67746	11.27051
5.89090	-14.67746	11.27051
5.89529	-14.67746	11.27051
5.89949	-14.67746	11.27051
5.90368	-14.67746	11.27051
5.90787	-14.67746	11.27051
5.91207	-14.67746	11.27051
5.91627	-14.67746	11.27051
5.92046	-14.67746	11.27051
5.92474	-14.67746	11.27051
5.92900	-14.67746	11.27051
5.93320	-14.67746	11.27051
5.93739	-14.67746	11.27051
5.94158	-14.67746	11.27051
5.94576	-14.67746	11.27051
5.94995	-14.67746	11.27051
5.95420	-14.69943	11.27051
5.95849	-14.69943	11.27051
5.96268	-14.69943	11.27051
5.96687	-14.69943	11.27051
5.97106	-14.67746	11.27051
5.97524	-14.67746	11.27051
5.97953	-14.69943	11.27051
5.98371	-14.69943	11.27051
5.98801	-14.69943	11.27051
5.99222	-14.69943	11.27051
5.99640	-14.69943	11.27051
6.00059	-14.69943	11.27051
6.00477	-14.69943	11.27051
6.00896	-14.69943	11.27051
6.01316	-14.69943	11.27051
6.01757	-14.69943	11.27051
6.02179	-14.69943	11.27051
6.02598	-14.69943	11.27051
6.03017	-14.69943	11.27051
6.03437	-14.69943	11.27051
6.03855	-14.72140	11.27051
6.04274	-14.69943	11.27051
6.04701	-14.69943	11.27051
6.05127	-14.69943	11.27051
6.05546	-14.72140	11.27051
6.05965	-14.72140	11.27051
6.06383	-14.72140	11.27051
6.06802	-14.69943	11.27051
6.07220	-14.72140	11.27051
6.07645	-14.69943	11.27051
6.08083	-14.69943	11.27051
6.08502	-14.72140	11.27051
6.08921	-14.72140	11.27051
6.09340	-14.69943	11.27051
6.09758	-14.72140	11.27051
6.10176	-14.72140	11.27051
6.10595	-14.72140	11.27051
6.11024	-14.72140	11.27051
6.11444	-14.72140	11.27051
6.11864	-14.72140	11.27051
6.12283	-14.72140	11.27051
6.12702	-14.72140	11.27051
6.13121	-14.72140	11.27051
6.13539	-14.72140	11.27051
6.13979	-14.72140	11.27051
6.14399	-14.72140	11.27051
6.14818	-14.72140	11.27051
6.15236	-14.72140	11.27051
6.15655	-14.74338	11.27051
6.16073	-14.74338	11.27051
6.16492	-14.72140	11.27051
6.16919	-14.74338	11.27051
6.17345	-14.72140	11.27051
6.17764	-14.72140	11.27051
6.18193	-14.74338	11.27051
6.18612	-14.72140	11.27051
6.19031	-14.72140	11.27051
6.19449	-14.74338	11.27051
6.19875	-14.72140	11.27051
6.20303	-14.74338	11.27051
6.20723	-14.74338	11.27051
6.21142	-14.74338	11.27051
6.21562	-14.74338	11.27051
6.21982	-14.72140	11.27051
6.22402	-14.74338	11.27051
6.22821	-14.74338	11.27051
6.23251	-14.74338	11.27051
6.23674	-14.74338	11.27051
6.24093	-14.74338	11.27051
6.24512	-14.74338	11.27051
6.24930	-14.74338	11.27051
6.25349	-14.74338	11.27051
6.25767	-14.74338	11.27051
6.26207	-14.74338	11.27051
6.26629	-14.74338	11.27051
6.27048	-14.74338	11.27051
6.27467	-14.74338	11.27051
6.27885	-14.74338	11.27051
6.28314	-14.74338	11.27051
6.28733	-14.76535	11.27051
6.29160	-14.76535	11.27051
6.29586	-14.74338	11.27051
6.30006	-14.76535	11.27051
6.30425	-14.74338	11.27051
6.30844	-14.76535	11.27051
6.31265	-14.76535	11.27051
6.31685	-14.76535	11.27051
6.32114	-14.76535	11.27051
6.32543	-14.76535	11.27051
6.32963	-14.74338	11.27051
6.33382	-14.76535	11.27051
6.33802	-14.76535	11.27051
6.34222	-14.76535	11.27051
6.34641	-14.76535	11.27051
6.35059	-14.76535	11.27051
6.35489	-14.76535	11.27051
6.35910	-14.76535	11.27051
6.36329	-14.76535	11.27051
6.36747	-14.76535	11.27051
6.37166	-14.76535	11.27051
6.37584	-14.76535	11.27051
6.38003	-14.76535	11.27051
6.38460	-14.76535	11.27051
6.38881	-14.76535	11.27051
6.39300	-14.78732	11.27051
6.39719	-14.76535	11.27051
6.40137	-14.76535	11.27051
6.40556	-14.78732	11.27051
6.40975	-14.78732	11.27051
6.41404	-14.78732	11.27051
6.41833	-14.78732	11.27051
6.42253	-14.78732	11.27051
6.42673	-14.78732	11.27051
6.43091	-14.78732	11.27051
6.43511	-14.78732	11.27051
6.43930	-14.80929	11.27051
6.44356	-14.78732	11.27051
6.44784	-14.78732	11.27051
6.45204	-14.78732	11.27051
6.45623	-14.78732	11.27051
6.46042	-14.78732	11.27051
6.46460	-14.78732	11.27051
6.46879	-14.78732	11.27051
6.47297	-14.78732	11.27051
6.47727	-14.78732	11.27051
6.48147	-14.80929	11.27051
6.48576	-14.78732	11.27051
6.48995	-14.78732	11.27051
6.49413	-14.78732	11.27051
6.49833	-14.78732	11.27051
6.50251	-14.78732	11.27051
6.50693	-14.78732	11.27051
6.51113	-14.78732	11.27051
6.51534	-14.78732	11.27051
6.51954	-14.78732	11.27051
6.52374	-14.78732	11.27051
6.52793	-14.78732	11.27051
6.53212	-14.78732	11.27051
6.53640	-14.80929	11.27051
6.54066	-14.78732	11.27051
6.54486	-14.78732	11.27051
6.54905	-14.80929	11.27051
6.55323	-14.78732	11.27051
6.55742	-14.78732	11.27051
6.56161	-14.78732	11.27051
6.56586	-14.78732	11.27051
6.57014	-14.78732	11.27051
6.57435	-14.78732	11.27051
6.57854	-14.78732	11.27051
6.58273	-14.78732	11.27051
6.58701	-14.78732	11.27051
6.59120	-14.78732	11.27051
6.59538	-14.78732	11.27051
6.59967	-14.78732	11.27051
6.60388	-14.78732	11.27051
6.60806	-14.78732	11.27051
6.61225	-14.78732	11.27051
6.61645	-14.78732	11.27051
6.62065	-14.78732	11.27051
6.62484	-14.78732	11.27051
6.62925	-14.78732	11.27051
6.63346	-14.78732	11.27051
6.63764	-14.76535	11.27051
6.64183	-14.76535	11.27051
6.64602	-14.78732	11.27051
6.65021	-14.78732	11.27051
6.65441	-14.78732	11.27051
6.65868	-14.78732	11.27051
6.66295	-14.78732	11.27051
6.66714	-14.78732	11.27051
6.67133	-14.78732	11.27051
6.67552	-14.76535	11.27051
6.67971	-14.76535	11.27051
6.68390	-14.76535	11.27051
6.68827	-14.76535	11.27051
6.69255	-14.76535	11.27051
6.69675	-14.76535	11.27051
6.70093	-14.76535	11.27051
6.70512	-14.76535	11.27051
6.70931	-14.76535	11.27051
6.71351	-14.76535	11.27051
6.71771	-14.76535	11.27051
6.72201	-14.74338	11.27051
6.72623	-14.74338	11.27051
6.73041	-14.74338	11.27051
6.73460	-14.74338	11.27051
6.73878	-14.74338	11.27051
6.74297	-14.74338	11.27051
6.74716	-14.74338	11.27051
6.75155	-14.74338	11.27051
6.75576	-14.74338	11.27051
6.75995	-14.74338	11.27051
6.76414	-14.72140	11.27051
6.76832	-14.74338	11.27051
6.77250	-14.74338	11.27051
6.77669	-14.72140	11.27051
6.78097	-14.72140	11.27051
6.78524	-14.72140	11.27051
6.78954	-14.72140	11.27051
6.79372	-14.72140	11.27051
6.79791	-14.72140	11.27051
6.80210	-14.72140	11.27051
6.80629	-14.72140	11.27051
6.81054	-14.69943	11.27051
6.81484	-14.69943	11.27051
6.81904	-14.69943	11.27051
6.82323	-14.69943	11.27051
6.82742	-14.69943	11.27051
6.83160	-14.69943	11.27051
6.83579	-14.69943	11.27051
6.83998	-14.69943	11.27051
6.84427	-14.69943	11.27051
6.84847	-14.69943	11.27051
6.85265	-14.67746	11.27051
6.85684	-14.67746	11.27051
6.86103	-14.67746	11.27051
6.86521	-14.67746	11.27051
6.86940	-14.67746	11.27051
6.87379	-14.67746	11.27051
6.87800	-14.67746	11.27051
6.88218	-14.67746	11.27051
6.88638	-14.65548	11.27051
6.89067	-14.65548	11.27051
6.89485	-14.65548	11.27051
6.89904	-14.65548	11.27051
6.90332	-14.65548	11.27051
6.90758	-14.65548	11.27051
6.91178	-14.65548	11.27051
6.91598	-14.65548	11.27051
6.92017	-14.63351	11.27051
6.92436	-14.63351	11.27051
6.92854	-14.63351	11.27051
6.93280	-14.63351	11.27051
6.93707	-14.63351	11.27051
6.94127	-14.63351	11.27051
6.94545	-14.63351	11.27051
6.94964	-14.63351	11.27051
6.95383	-14.61154	11.27051
6.95801	-14.61154	11.27051
6.96221	-14.61154	11.27051
6.96653	-14.61154	11.27051
6.97073	-14.61154	11.27051
6.97492	-14.61154	11.27051
6.97911	-14.61154	11.27051
6.98330	-14.61154	11.27051
6.98748	-14.61154	11.27051
6.99177	-14.58957	11.27051
6.99617	-14.58957	11.27051
7.00039	-14.58957	11.27051
7.00458	-14.58957	11.27051
7.00876	-14.58957	11.27051
7.01295	-14.58957	11.27051
7.01715	-14.58957	11.27051
7.02135	-14.58957	11.27051
7.02566	-14.58957	11.27051
7.02992	-14.58957	11.27051
7.03412	-14.58957	11.27051
7.03832	-14.56759	11.27051
7.04251	-14.56759	11.27051
7.04669	-14.56759	11.27051
7.05089	-14.56759	11.27051
7.05515	-14.56759	11.27051
7.05943	-14.56759	11.27051
7.06362	-14.54562	11.27051
7.06781	-14.54562	11.27051
7.07200	-14.54562	11.27051
7.07618	-14.54562	11.27051
7.08037	-14.56759	11.27051
7.08457	-14.56759	11.27051
7.08888	-14.54562	11.27051
7.09319	-14.54562	11.27051
7.09738	-14.54562	11.27051
7.10156	-14.54562	11.27051
7.10577	-14.54562	11.27051
7.10996	-14.52365	11.27051
7.11416	-14.52365	11.27051
7.11863	-14.54562	11.27051
7.12285	-14.52365	11.27051
7.12705	-14.54562	11.27051
7.13124	-14.52365	11.27051
7.13542	-14.52365	11.27051
7.13961	-14.52365	11.27051
7.14380	-14.52365	11.27051
7.14806	-14.52365	11.27051
7.15232	-14.52365	11.27051
7.15651	-14.52365	11.27051
7.16070	-14.52365	11.27051
7.16489	-14.52365	11.27051
7.16908	-14.52365	11.27051
7.17326	-14.52365	11.27051
7.17752	-14.52365	11.27051
7.18180	-14.52365	11.27051
7.18600	-14.52365	11.27051
7.19019	-14.52365	11.27051
7.19449	-14.52365	11.27051
7.19867	-14.52365	11.27051
7.20286	-14.52365	11.27051
7.20704	-14.52365	11.27051
7.21133	-14.52365	11.27051
7.21558	-14.52365	11.27051
7.21979	-14.52365	11.27051
7.22398	-14.52365	11.27051
7.22818	-14.52365	11.27051
7.23236	-14.52365	11.27051
7.23655	-14.52365	11.27051
7.24097	-14.52365	11.27051
7.24518	-14.52365	11.27051
7.24936	-14.52365	11.27051
7.25355	-14.52365	11.27051
7.25774	-14.52365	11.27051
7.26192	-14.52365	11.27051
7.26611	-14.52365	11.27051
7.27040	-14.52365	11.27051
7.27466	-14.52365	11.27051
7.27885	-14.52365	11.27051
7.28304	-14.52365	11.27051
7.28723	-14.52365	11.27051
7.29141	-14.52365	11.27051
7.29570	-14.52365	11.27051
7.29996	-14.52365	11.27051
7.30424	-14.54562	11.27051
7.30845	-14.54562	11.27051
7.31264	-14.54562	11.27051
7.31684	-14.54562	11.27051
7.32104	-14.54562	11.27051
7.32523	-14.54562	11.27051
7.32944	-14.54562	11.27051
7.33375	-14.54562	11.27051
7.33796	-14.54562	11.27051
7.34215	-14.54562	11.27051
7.34635	-14.54562	11.27051
7.35055	-14.54562	11.27051
7.35475	-14.56759	11.27051
7.35894	-14.56759	11.27051
7.36333	-14.56759	11.27051
7.36754	-14.56759	11.27051
7.37174	-14.56759	11.27051
7.37593	-14.56759	11.27051
7.38013	-14.56759	11.27051
7.38432	-14.56759	11.27051
7.38851	-14.56759	11.27051
7.39283	-14.56759	11.27051
7.39722	-14.58957	11.27051
7.40142	-14.58957	11.27051
7.40561	-14.58957	11.27051
7.40981	-14.58957	11.27051
7.41402	-14.58957	11.27051
7.41822	-14.58957	11.27051
7.42249	-14.61154	11.27051
7.42676	-14.58957	11.27051
7.43096	-14.61154	11.27051
7.43518	-14.61154	11.27051
7.43938	-14.61154	11.27051
7.44357	-14.61154	11.27051
7.44775	-14.61154	11.27051
7.45194	-14.61154	11.27051
7.45623	-14.61154	11.27051
7.46043	-14.61154	11.27051
7.46462	-14.61154	11.27051
7.46881	-14.61154	11.27051
7.47299	-14.61154	11.27051
7.47718	-14.63351	11.27051
7.48136	-14.63351	11.27051
7.48576	-14.63351	11.27051
7.48997	-14.63351	11.27051
7.49416	-14.63351	11.27051
7.49846	-14.65548	11.27051
7.50265	-14.65548	11.27051
7.50683	-14.65548	11.27051
7.51102	-14.65548	11.27051
7.51532	-14.65548	11.27051
7.51958	-14.65548	11.27051
7.52378	-14.65548	11.27051
7.52797	-14.65548	11.27051
7.53216	-14.65548	11.27051
7.53635	-14.65548	11.27051
7.54053	-14.65548	11.27051
7.54478	-14.67746	11.27051
7.54907	-14.67746	11.27051
7.55327	-14.67746	11.27051
7.55746	-14.67746	11.27051
7.56164	-14.67746	11.27051
7.56583	-14.67746	11.27051
7.57001	-14.67746	11.27051
7.57420	-14.67746	11.27051
7.57850	-14.69943	11.27051
7.58270	-14.69943	11.27051
7.58689	-14.69943	11.27051
7.59108	-14.69943	11.27051
7.59526	-14.69943	11.27051
7.59955	-14.69943	11.27051
7.60373	-14.69943	11.27051
7.60813	-14.72140	11.27051
7.61234	-14.72140	11.27051
7.61654	-14.72140	11.27051
7.62073	-14.72140	11.27051
7.62492	-14.72140	11.27051
7.62911	-14.72140	11.27051
7.63330	-14.74338	11.27051
7.63757	-14.74338	11.27051
7.64183	-14.74338	11.27051
7.64602	-14.74338	11.27051
7.65020	-14.74338	11.27051
7.65440	-14.74338	11.27051
7.65858	-14.76535	11.27051
7.66277	-14.74338	11.27051
7.66702	-14.76535	11.27051
7.67130	-14.76535	11.27051
7.67550	-14.76535	11.27051
7.67968	-14.76535	11.27051
7.68387	-14.76535	11.27051
7.68805	-14.76535	11.27051
7.69224	-14.76535	11.27051
7.69642	-14.76535	11.27051
7.70082	-14.76535	11.27051
7.70502	-14.78732	11.27051
7.70921	-14.78732	11.27051
7.71339	-14.78732	11.27051
7.71759	-14.78732	11.27051
7.72179	-14.78732	11.27051
7.72598	-14.78732	11.27051
7.73040	-14.80929	11.27051
7.73461	-14.78732	11.27051
7.73880	-14.80929	11.27051
7.74299	-14.80929	11.27051
7.74718	-14.80929	11.27051
7.75136	-14.80929	11.27051
7.75555	-14.80929	11.27051
7.75982	-14.80929	11.27051
7.76409	-14.80929	11.27051
7.76829	-14.83127	11.27051
7.77247	-14.83127	11.27051
7.77666	-14.83127	11.27051
7.78085	-14.83127	11.27051
7.78503	-14.83127	11.27051
7.78929	-14.85324	11.27051
7.79356	-14.83127	11.27051
7.79776	-14.83127	11.27051
7.80205	-14.83127	11.27051
7.80624	-14.85324	11.27051
7.81040	-14.85324	11.27051
7.81461	-14.85324	11.27051
7.81880	-14.85324	11.27051
7.82310	-14.85324	11.27051
7.82730	-14.85324	11.27051
7.83149	-14.85324	11.27051
7.83569	-14.85324	11.27051
7.83987	-14.87521	11.27051
7.84406	-14.85324	11.27051
7.84824	-14.85324	11.27051
7.85264	-14.87521	11.27051
7.85685	-14.87521	11.27051
7.86103	-14.87521	11.27051
7.86522	-14.87521	11.27051
7.86940	-14.87521	11.27051
7.87359	-14.87521	11.27051
7.87777	-14.87521	11.27051
7.88205	-14.87521	11.27051
7.88632	-14.87521	11.27051
7.89052	-14.87521	11.27051
7.89470	-14.89718	11.27051
7.89889	-14.89718	11.27051
7.90317	-14.87521	11.27051
7.90736	-14.87521	11.27051
7.91161	-14.89718	11.27051
7.91589	-14.89718	11.27051
7.92010	-14.89718	11.27051
7.92429	-14.89718	11.27051
7.92848	-14.89718	11.27051
7.93266	-14.89718	11.27051
7.93686	-14.89718	11.27051
7.94105	-14.89718	11.27051
7.94535	-14.89718	11.27051
7.94955	-14.89718	11.27051
7.95374	-14.89718	11.27051
7.95793	-14.89718	11.27051
7.96211	-14.89718	11.27051
7.96631	-14.89718	11.27051
7.97050	-14.89718	11.27051
7.97488	-14.89718	11.27051
7.97909	-14.89718	11.27051
7.98328	-14.89718	11.27051
7.98747	-14.89718	11.27051
7.99166	-14.89718	11.27051
7.99584	-14.89718	11.27051
8.00003	-14.89718	11.27051
8.00444	-14.89718	11.27051
8.00869	-14.89718	11.27051
8.01289	-14.89718	11.27051
8.01709	-14.89718	11.27051
8.02129	-14.87521	11.27051
8.02547	-14.89718	11.27051
8.02966	-14.87521	11.27051
8.03392	-14.89718	11.27051
8.03819	-14.89718	11.27051
8.04240	-14.87521	11.27051
8.04659	-14.87521	11.27051
8.05077	-14.87521	11.27051
8.05496	-14.87521	11.27051
8.05914	-14.89718	11.27051
8.06333	-14.89718	11.27051
8.06762	-14.87521	11.27051
8.07183	-14.87521	11.27051
8.07602	-14.87521	11.27051
8.08020	-14.87521	11.27051
8.08439	-14.87521	11.27051
8.08857	-14.87521	11.27051
8.09275	-14.87521	11.27051
8.09714	-14.87521	11.27051
8.10134	-14.87521	11.27051
8.10563	-14.87521	11.27051
8.10982	-14.87521	11.27051
8.11401	-14.85324	11.27051
8.11821	-14.85324	11.27051
8.12241	-14.85324	11.27051
8.12669	-14.85324	11.27051
8.13096	-14.85324	11.27051
8.13516	-14.85324	11.27051
8.13935	-14.85324	11.27051
8.14353	-14.85324	11.27051
8.14772	-14.85324	11.27051
8.15190	-14.85324	11.27051
8.15615	-14.83127	11.27051
8.16043	-14.83127	11.27051
8.16462	-14.83127	11.27051
8.16881	-14.83127	11.27051
8.17300	-14.83127	11.27051
8.17718	-14.83127	11.27051
8.18137	-14.80929	11.27051
8.18555	-14.80929	11.27051
8.18984	-14.83127	11.27051
8.19404	-14.80929	11.27051
8.19824	-14.80929	11.27051
8.20240	-14.80929	11.27051
8.20670	-14.80929	11.27051
8.21088	-14.80929	11.27051
8.21508	-14.80929	11.27051
8.21953	-14.78732	11.27051
8.22375	-14.78732	11.27051
8.22795	-14.78732	11.27051
8.23213	-14.78732	11.27051
8.23632	-14.78732	11.27051
8.24051	-14.78732	11.27051
8.24469	-14.78732	11.27051
8.24897	-14.78732	11.27051
8.25324	-14.78732	11.27051
8.25744	-14.76535	11.27051
8.26163	-14.76535	11.27051
8.26581	-14.76535	11.27051
8.27000	-14.76535	11.27051
8.27418	-14.76535	11.27051
8.27845	-14.74338	11.27051
8.28272	-14.76535	11.27051
8.28692	-14.74338	11.27051
8.29111	-14.74338	11.27051
8.29529	-14.74338	11.27051
8.29947	-14.74338	11.27051
8.30366	-14.74338	11.27051
8.30795	-14.72140	11.27051
8.31225	-14.72140	11.27051
8.31648	-14.72140	11.27051
8.32068	-14.72140	11.27051
8.32488	-14.72140	11.27051
8.32907	-14.72140	11.27051
8.33325	-14.72140	11.27051
8.33745	-14.69943	11.27051
8.34186	-14.69943	11.27051
8.34609	-14.69943	11.27051
8.35028	-14.69943	11.27051
8.35447	-14.67746	11.27051
8.35866	-14.67746	11.27051
8.36285	-14.67746	11.27051
8.36706	-14.67746	11.27051
8.37136	-14.67746	11.27051
8.37563	-14.67746	11.27051
8.37983	-14.67746	11.27051
8.38402	-14.65548	11.27051
8.38820	-14.65548	11.27051
8.39239	-14.65548	11.27051
8.39658	-14.65548	11.27051
8.40084	-14.63351	11.27051
8.40512	-14.63351	11.27051
8.40944	-14.63351	11.27051
8.41363	-14.63351	11.27051
8.41783	-14.63351	11.27051
8.42203	-14.63351	11.27051
8.42623	-14.63351	11.27051
8.43041	-14.61154	11.27051
8.43471	-14.61154	11.27051
8.43893	-14.61154	11.27051
8.44313	-14.61154	11.27051
8.44733	-14.58957	11.27051
8.45151	-14.58957	11.27051
8.45570	-14.58957	11.27051
8.45988	-14.58957	11.27051
8.46429	-14.58957	11.27051
8.46849	-14.56759	11.27051
8.47268	-14.56759	11.27051
8.47687	-14.56759	11.27051
8.48105	-14.54562	11.27051
8.48524	-14.56759	11.27051
8.48942	-14.56759	11.27051
8.49369	-14.54562	11.27051
8.49796	-14.54562	11.27051
8.50215	-14.52365	11.27051
8.50635	-14.52365	11.27051
8.51064	-14.52365	11.27051
8.51482	-14.52365	11.27051
8.51902	-14.52365	11.27051
8.52328	-14.52365	11.27051
8.52757	-14.50168	11.27051
8.53177	-14.50168	11.27051
8.53596	-14.50168	11.27051
8.54016	-14.50168	11.27051
8.54434	-14.50168	11.27051
8.54853	-14.50168	11.27051
8.55271	-14.47970	11.27051
8.55701	-14.47970	11.27051
8.56121	-14.47970	11.27051
8.56540	-14.47970	11.27051
8.56958	-14.47970	11.27051
8.57378	-14.47970	11.27051
8.57797	-14.45773	11.27051
8.58215	-14.45773	11.27051
8.58656	-14.45773	11.27051
8.59076	-14.45773	11.27051
8.59495	-14.45773	11.27051
8.59913	-14.43576	11.27051
8.60332	-14.43576	11.27051
8.60750	-14.43576	11.27051
8.61179	-14.43576	11.27051
8.61609	-14.43576	11.27051
8.62036	-14.43576	11.27051
8.62455	-14.41379	11.27051
8.62874	-14.41379	11.27051
8.63292	-14.41379	11.27051
8.63711	-14.39181	11.27051
8.64130	-14.39181	11.27051
8.64555	-14.39181	11.27051
8.64983	-14.39181	11.27051
8.65403	-14.39181	11.27051
8.65822	-14.39181	11.27051
8.66240	-14.39181	11.27051
8.66658	-14.39181	11.27051
8.67077	-14.39181	11.27051
8.67495	-14.36984	11.27051
8.67924	-14.36984	11.27051
8.68344	-14.36984	11.27051
8.68763	-14.36984	11.27051
8.69181	-14.36984	11.27051
8.69600	-14.34787	11.27051
8.70018	-14.34787	11.27051
8.70437	-14.34787	11.27051
8.70875	-14.34787	11.27051
8.71306	-14.34787	11.27051
8.71727	-14.32589	11.27051
8.72147	-14.32589	11.27051
8.72566	-14.32589	11.27051
8.72984	-14.32589	11.27051
8.73403	-14.32589	11.27051
8.73831	-14.32589	11.27051
8.74258	-14.32589	11.27051
8.74677	-14.32589	11.27051
8.75096	-14.30392	11.27051
8.75515	-14.30392	11.27051
8.75933	-14.30392	11.27051
8.76352	-14.30392	11.27051
8.76777	-14.30392	11.27051
8.77205	-14.30392	11.27051
8.77624	-14.30392	11.27051
8.78043	-14.30392	11.27051
8.78462	-14.30392	11.27051
8.78881	-14.30392	11.27051
8.79299	-14.30392	11.27051
8.79718	-14.28195	11.27051
8.80147	-14.28195	11.27051
8.80567	-14.28195	11.27051
8.80986	-14.28195	11.27051
8.81415	-14.28195	11.27051
8.81836	-14.28195	11.27051
8.82255	-14.28195	11.27051
8.82673	-14.28195	11.27051
8.83112	-14.28195	11.27051
8.83532	-14.28195	11.27051
8.83951	-14.28195	11.27051
8.84370	-14.28195	11.27051
8.84789	-14.25998	11.27051
8.85207	-14.25998	11.27051
8.85626	-14.25998	11.27051
8.86053	-14.25998	11.27051
8.86478	-14.25998	11.27051
8.86898	-14.28195	11.27051
8.87317	-14.25998	11.27051
8.87735	-14.25998	11.27051
8.88154	-14.25998	11.27051
8.88572	-14.25998	11.27051
8.88997	-14.25998	11.27051
8.89425	-14.25998	11.27051
8.89841	-14.25998	11.27051
8.90260	-14.25998	11.27051
8.90679	-14.25998	11.27051
8.91097	-14.25998	11.27051
8.91526	-14.25998	11.27051
8.91946	-14.25998	11.27051
8.92377	-14.25998	11.27051
8.92797	-14.25998	11.27051
8.93216	-14.25998	11.27051
8.93636	-14.25998	11.27051
8.94054	-14.25998	11.27051
8.94474	-14.25998	11.27051
8.94892	-14.25998	11.27051
8.95333	-14.25998	11.27051
8.95754	-14.25998	11.27051
8.96173	-14.23800	11.27051
8.96591	-14.23800	11.27051
8.97010	-14.25998	11.27051
8.97431	-14.23800	11.27051
8.97850	-14.23800	11.27051
8.98278	-14.25998	11.27051
8.98704	-14.23800	11.27051
8.99123	-14.23800	11.27051
8.99542	-14.23800	11.27051
8.99960	-14.23800	11.27051
9.00379	-14.23800	11.27051
9.00797	-14.23800	11.27051
9.01223	-14.23800	11.27051
9.01664	-14.23800	11.27051
9.02084	-14.23800	11.27051
9.02503	-14.23800	11.27051
9.02922	-14.25998	11.27051
9.03341	-14.23800	11.27051
9.03760	-14.23800	11.27051
9.04179	-14.23800	11.27051
9.04609	-14.23800	11.27051
9.05030	-14.23800	11.27051
9.05449	-14.23800	11.27051
9.05868	-14.23800	11.27051
9.06286	-14.23800	11.27051
9.06705	-14.23800	11.27051
9.07123	-14.23800	11.27051
9.07566	-14.23800	11.27051
9.07986	-14.23800	11.27051
9.08404	-14.23800	11.27051
9.08823	-14.25998	11.27051
9.09241	-14.25998	11.27051
9.09660	-14.25998	11.27051
9.10078	-14.23800	11.27051
9.10505	-14.23800	11.27051
9.10931	-14.23800	11.27051
9.11351	-14.25998	11.27051
9.11783	-14.25998	11.27051
9.12202	-14.25998	11.27051
9.12620	-14.25998	11.27051
9.13040	-14.25998	11.27051
9.13467	-14.25998	11.27051
9.13896	-14.25998	11.27051
9.14316	-14.25998	11.27051
9.14736	-14.25998	11.27051
9.15154	-14.25998	11.27051
9.15573	-14.25998	11.27051
9.15991	-14.25998	11.27051
9.16410	-14.25998	11.27051
9.16839	-14.25998	11.27051
9.17259	-14.25998	11.27051
9.17678	-14.25998	11.27051
9.18096	-14.25998	11.27051
9.18515	-14.28195	11.27051
9.18933	-14.25998	11.27051
9.19352	-14.28195	11.27051
9.19794	-14.28195	11.27051
9.20214	-14.28195	11.27051
9.20634	-14.28195	11.27051
9.21053	-14.28195	11.27051
9.21471	-14.28195	11.27051
9.21902	-14.28195	11.27051
9.22320	-14.28195	11.27051
9.22747	-14.28195	11.27051
9.23174	-14.28195	11.27051
9.23594	-14.30392	11.27051
9.24012	-14.30392	11.27051
9.24431	-14.30392	11.27051
9.24850	-14.30392	11.27051
9.25269	-14.30392	11.27051
9.25694	-14.30392	11.27051
9.26122	-14.30392	11.27051
9.26542	-14.32589	11.27051
9.26961	-14.30392	11.27051
9.27379	-14.32589	11.27051
9.27798	-14.32589	11.27051
9.28216	-14.32589	11.27051
9.28635	-14.32589	11.27051
9.29065	-14.32589	11.27051
9.29484	-14.32589	11.27051
9.29903	-14.32589	11.27051
9.30321	-14.32589	11.27051
9.30740	-14.34787	11.27051
9.31158	-14.34787	11.27051
9.31577	-14.34787	11.27051
9.32034	-14.34787	11.27051
9.32455	-14.34787	11.27051
9.32874	-14.36984	11.27051
9.33292	-14.36984	11.27051
9.33711	-14.36984	11.27051
9.34129	-14.36984	11.27051
9.34547	-14.36984	11.27051
9.34975	-14.39181	11.27051
9.35402	-14.39181	11.27051
9.35822	-14.39181	11.27051
9.36241	-14.39181	11.27051
9.36659	-14.39181	11.27051
9.37079	-14.39181	11.27051
9.37499	-14.39181	11.27051
9.37924	-14.41379	11.27051
9.38352	-14.41379	11.27051
9.38772	-14.41379	11.27051
9.39191	-14.41379	11.27051
9.39609	-14.41379	11.27051
9.40028	-14.43576	11.27051
9.40446	-14.43576	11.27051
9.40865	-14.43576	11.27051
9.41295	-14.43576	11.27051
9.41717	-14.43576	11.27051
9.42148	-14.45773	11.27051
9.42567	-14.45773	11.27051
9.42986	-14.45773	11.27051
9.43405	-14.45773	11.27051
9.43825	-14.45773	11.27051
9.44267	-14.45773	11.27051
9.44687	-14.47970	11.27051
9.45106	-14.47970	11.27051
9.45525	-14.47970	11.27051
9.45943	-14.47970	11.27051
9.46361	-14.47970	11.27051
9.46780	-14.47970	11.27051
9.47206	-14.50168	11.27051
9.47633	-14.50168	11.27051
9.48053	-14.50168	11.27051
9.48471	-14.50168	11.27051
9.48890	-14.50168	11.27051
9.49308	-14.50168	11.27051
9.49727	-14.52365	11.27051
9.50152	-14.52365	11.27051
9.50580	-14.52365	11.27051
9.51000	-14.52365	11.27051
9.51418	-14.54562	11.27051
9.51839	-14.54562	11.27051
9.52269	-14.52365	11.27051
9.52687	-14.54562	11.27051
9.53106	-14.54562	11.27051
9.53535	-14.54562	11.27051
9.53955	-14.54562	11.27051
9.54374	-14.54562	11.27051
9.54792	-14.54562	11.27051
9.55211	-14.56759	11.27051
9.55629	-14.56759	11.27051
9.56048	-14.56759	11.27051
9.56489	-14.56759	11.27051
9.56910	-14.56759	11.27051
9.57329	-14.56759	11.27051
9.57747	-14.56759	11.27051
9.58166	-14.56759	11.27051
9.58584	-14.58957	11.27051
9.59003	-14.58957	11.27051
9.59430	-14.58957	11.27051
9.59856	-14.58957	11.27051
9.60276	-14.58957	11.27051
9.60694	-14.58957	11.27051
9.61113	-14.58957	11.27051
9.61531	-14.58957	11.27051
9.61951	-14.58957	11.27051
9.62390	-14.61154	11.27051
9.62819	-14.61154	11.27051
9.63239	-14.61154	11.27051
9.63657	-14.61154	11.27051
9.64076	-14.61154	11.27051
9.64494	-14.61154	11.27051
9.64914	-14.61154	11.27051
9.65332	-14.61154	11.27051
9.65762	-14.63351	11.27051
9.66182	-14.63351	11.27051
9.66601	-14.61154	11.27051
9.67019	-14.63351	11.27051
9.67438	-14.63351	11.27051
9.67857	-14.63351	11.27051
9.68275	-14.63351	11.27051
9.68716	-14.65548	11.27051
9.69136	-14.63351	11.27051
9.69555	-14.65548	11.27051
9.69973	-14.65548	11.27051
9.70392	-14.63351	11.27051
9.70810	-14.65548	11.27051
9.71228	-14.65548	11.27051
9.71655	-14.65548	11.27051
9.72083	-14.65548	11.27051
9.72515	-14.65548	11.27051
9.72934	-14.65548	11.27051
9.73353	-14.65548	11.27051
9.73772	-14.67746	11.27051
9.74191	-14.67746	11.27051
9.74617	-14.67746	11.27051
9.75047	-14.67746	11.27051
9.75467	-14.67746	11.27051
9.75886	-14.67746	11.27051
9.76304	-14.67746	11.27051
9.76723	-14.67746	11.27051
9.77141	-14.67746	11.27051
9.77559	-14.67746	11.27051
9.77989	-14.67746	11.27051
9.78408	-14.67746	11.27051
9.78829	-14.67746	11.27051
9.79248	-14.67746	11.27051
9.79668	-14.69943	11.27051
9.80086	-14.69943	11.27051
9.80505	-14.69943	11.27051
9.80947	-14.69943	11.27051
9.81368	-14.69943	11.27051
9.81788	-14.69943	11.27051
9.82207	-14.69943	11.27051
9.82637	-14.69943	11.27051
9.83056	-14.69943	11.27051
9.83474	-14.69943	11.27051
9.83901	-14.72140	11.27051
9.84327	-14.69943	11.27051
9.84746	-14.72140	11.27051
9.85165	-14.72140	11.27051
9.85584	-14.72140	11.27051
9.86002	-14.72140	11.27051
9.86421	-14.72140	11.27051
9.86845	-14.72140	11.27051
9.87273	-14.72140	11.27051
9.87693	-14.72140	11.27051
9.88111	-14.72140	11.27051
9.88530	-14.72140	11.27051
9.88949	-14.74338	11.27051
9.89367	-14.74338	11.27051
9.89785	-14.74338	11.27051
9.90214	-14.74338	11.27051
9.90636	-14.74338	11.27051
9.91055	-14.74338	11.27051
9.91473	-14.74338	11.27051
9.91893	-14.74338	11.27051
9.92312	-14.74338	11.27051
9.92741	-14.76535	11.27051
9.93183	-14.76535	11.27051
9.93605	-14.76535	11.27051
9.94023	-14.76535	11.27051
9.94442	-14.76535	11.27051
9.94860	-14.76535	11.27051
9.95279	-14.76535	11.27051
9.95697	-14.76535	11.27051
9.96123	-14.76535	11.27051
9.96550	-14.76535	11.27051
9.96970	-14.76535	11.27051
9.97388	-14.76535	11.27051
9.97807	-14.76535	11.27051
9.98225	-14.76535	11.27051
9.98640	-14.78732	11.27051
9.99066	-14.78732	11.27051
9.99494	-14.78732	11.27051
9.99914	-14.76535	11.27051
10.00332	-14.78732	11.27051
10.00751	-14.78732	11.27051
10.01169	-14.78732	11.27051
10.01588	-14.78732	11.27051
10.02009	-14.78732	11.27051
10.02440	-14.78732	11.27051
10.02870	-14.78732	11.27051
10.03289	-14.78732	11.27051
10.03707	-14.80929	11.27051
10.04126	-14.80929	11.27051
10.04544	-14.80929	11.27051
10.04964	-14.80929	11.27051
10.05406	-14.80929	11.27051
10.05826	-14.80929	11.27051
10.06240	-14.80929	11.27051
10.06659	-14.80929	11.27051
10.07077	-14.80929	11.27051
10.07496	-14.80929	11.27051
10.07914	-14.80929	11.27051
10.08340	-14.80929	11.27051
10.08766	-14.80929	11.27051
10.09185	-14.80929	11.27051
10.09604	-14.83127	11.27051
10.10022	-14.83127	11.27051
10.10440	-14.80929	11.27051
10.10859	-14.83127	11.27051
10.11282	-14.83127	11.27051
10.11710	-14.83127	11.27051
10.12132	-14.83127	11.27051
10.12551	-14.83127	11.27051
10.12980	-14.83127	11.27051
10.13400	-14.83127	11.27051
10.13819	-14.83127	11.27051
10.14238	-14.83127	11.27051
10.14669	-14.83127	11.27051
10.15089	-14.83127	11.27051
10.15507	-14.83127	11.27051
10.15926	-14.85324	11.27051
10.16345	-14.85324	11.27051
10.16763	-14.85324	11.27051
10.17181	-14.85324	11.27051
10.17623	-14.83127	11.27051
10.18043	-14.85324	11.27051
10.18462	-14.85324	11.27051
10.18880	-14.85324	11.27051
10.19298	-14.85324	11.27051
10.19717	-14.85324	11.27051
10.20135	-14.85324	11.27051
10.20561	-14.85324	11.27051
10.20992	-14.85324	11.27051
10.21416	-14.85324	11.27051
10.21840	-14.85324	11.27051
10.22262	-14.85324	11.27051
10.22682	-14.85324	11.27051
10.23111	-14.85324	11.27051
10.23541	-14.85324	11.27051
10.23970	-14.85324	11.27051
10.24390	-14.85324	11.27051
10.24809	-14.85324	11.27051
10.25228	-14.85324	11.27051
10.25647	-14.85324	11.27051
10.26066	-14.85324	11.27051
10.26485	-14.87521	11.27051
10.26914	-14.87521	11.27051
10.27335	-14.85324	11.27051
10.27754	-14.87521	11.27051
10.28172	-14.87521	11.27051
10.28591	-14.87521	11.27051
10.29009	-14.87521	11.27051
10.29429	-14.87521	11.27051
10.29870	-14.87521	11.27051
10.30291	-14.87521	11.27051
10.30710	-14.87521	11.27051
10.31129	-14.87521	11.27051
10.31548	-14.87521	11.27051
10.31969	-14.87521	11.27051
10.32388	-14.89718	11.27051
10.32816	-14.87521	11.27051
10.33254	-14.87521	11.27051
10.33674	-14.87521	11.27051
10.34093	-14.89718	11.27051
10.34511	-14.87521	11.27051
10.34930	-14.89718	11.27051
10.35348	-14.89718	11.27051
10.35775	-14.89718	11.27051
10.36203	-14.89718	11.27051
10.36623	-14.89718	11.27051
10.37041	-14.89718	11.27051
10.37459	-14.89718	11.27051
10.37878	-14.89718	11.27051
10.38294	-14.89718	11.27051
10.38713	-14.89718	11.27051
10.39143	-14.89718	11.27051
10.39564	-14.89718	11.27051
10.39983	-14.89718	11.27051
10.40402	-14.89718	11.27051
10.40821	-14.89718	11.27051
10.41240	-14.89718	11.27051
10.41659	-14.89718	11.27051
10.42103	-14.91916	11.27051
10.42525	-14.89718	11.27051
10.42944	-14.89718	11.27051
10.43373	-14.89718	11.27051
10.43796	-14.91916	11.27051
10.44215	-14.91916	11.27051
10.44635	-14.91916	11.27051
10.45063	-14.91916	11.27051
10.45490	-14.91916	11.27051
10.45910	-14.91916	11.27051
10.46329	-14.91916	11.27051
10.46747	-14.91916	11.27051
10.47166	-14.89718	11.27051
10.47584	-14.91916	11.27051
10.48010	-14.91916	11.27051
10.48438	-14.91916	11.27051
10.48858	-14.91916	11.27051
10.49277	-14.91916	11.27051
10.49696	-14.91916	11.27051
10.50114	-14.91916	11.27051
10.50532	-14.91916	11.27051
10.50951	-14.91916	11.27051
10.51380	-14.91916	11.27051
10.51803	-14.91916	11.27051
10.52223	-14.91916	11.27051
10.52641	-14.91916	11.27051
10.53059	-14.91916	11.27051
10.53488	-14.91916	11.27051
10.53907	-14.91916	11.27051
10.54346	-14.91916	11.27051
10.54766	-14.91916	11.27051
10.55185	-14.94113	11.27051
10.55604	-14.91916	11.27051
10.56023	-14.94113	11.27051
10.56441	-14.94113	11.27051
10.56860	-14.94113	11.27051
10.57287	-14.94113	11.27051
10.57712	-14.91916	11.27051
10.58132	-14.91916	11.27051
10.58551	-14.94113	11.27051
10.58969	-14.94113	11.27051
10.59388	-14.94113	11.27051
10.59806	-14.94113	11.27051
10.60233	-14.91916	11.27051
10.60661	-14.94113	11.27051
10.61081	-14.91916	11.27051
10.61499	-14.94113	11.27051
10.61920	-14.94113	11.27051
10.62340	-14.94113	11.27051
10.62759	-14.91916	11.27051
10.63179	-14.94113	11.27051
10.63619	-14.94113	11.27051
10.64039	-14.94113	11.27051
10.64458	-14.94113	11.27051
10.64876	-14.91916	11.27051
10.65295	-14.91916	11.27051
10.65714	-14.94113	11.27051
10.66133	-14.94113	11.27051
10.66571	-14.94113	11.27051
10.66992	-14.91916	11.27051
10.67410	-14.94113	11.27051
10.67830	-14.94113	11.27051
10.68249	-14.94113	11.27051
10.68668	-14.94113	11.27051
10.69086	-14.91916	11.27051
10.69513	-14.91916	11.27051
10.69939	-14.91916	11.27051
10.70359	-14.91916	11.27051
10.70778	-14.91916	11.27051
10.71197	-14.91916	11.27051
10.71615	-14.91916	11.27051
10.72036	-14.91916	11.27051
10.72462	-14.91916	11.27051
10.72891	-14.91916	11.27051
10.73312	-14.91916	11.27051
10.73741	-14.91916	11.27051
10.74160	-14.91916	11.27051
10.74578	-14.91916	11.27051
10.74997	-14.91916	11.27051
10.75415	-14.91916	11.27051
10.75847	-14.91916	11.27051
10.76267	-14.91916	11.27051
10.76685	-14.91916	11.27051
10.77104	-14.91916	11.27051
10.77523	-14.91916	11.27051
10.77942	-14.91916	11.27051
10.78360	-14.91916	11.27051
10.78800	-14.91916	11.27051
10.79220	-14.91916	11.27051
10.79639	-14.91916	11.27051
10.80057	-14.91916	11.27051
10.80476	-14.91916	11.27051
10.80894	-14.91916	11.27051
10.81313	-14.91916	11.27051
10.81740	-14.91916	11.27051
10.82167	-14.89718	11.27051
10.82587	-14.89718	11.27051
10.83006	-14.91916	11.27051
10.83424	-14.91916	11.27051
10.83851	-14.89718	11.27051
10.84269	-14.89718	11.27051
10.84697	-14.89718	11.27051
10.85125	-14.89718	11.27051
10.85545	-14.89718	11.27051
10.85964	-14.89718	11.27051
10.86383	-14.89718	11.27051
10.86801	-14.89718	11.27051
10.87220	-14.89718	11.27051
10.87638	-14.89718	11.27051
10.88068	-14.89718	11.27051
10.88488	-14.89718	11.27051
10.88907	-14.89718	11.27051
10.89326	-14.89718	11.27051
10.89744	-14.87521	11.27051
10.90164	-14.89718	11.27051
10.90582	-14.89718	11.27051
10.91021	-14.87521	11.27051
10.91443	-14.87521	11.27051
10.91864	-14.89718	11.27051
10.92283	-14.87521	11.27051
10.92702	-14.87521	11.27051
10.93122	-14.89718	11.27051
10.93541	-14.87521	11.27051
10.93980	-14.87521	11.27051
10.94406	-14.87521	11.27051
10.94825	-14.89718	11.27051
10.95244	-14.89718	11.27051
10.95663	-14.87521	11.27051
10.96082	-14.87521	11.27051
10.96500	-14.87521	11.27051
10.96926	-14.87521	11.27051
10.97354	-14.87521	11.27051
10.97774	-14.87521	11.27051
10.98192	-14.87521	11.27051
10.98611	-14.87521	11.27051
10.99031	-14.87521	11.27051
10.99449	-14.89718	11.27051
10.99868	-14.89718	11.27051
11.00298	-14.87521	11.27051
11.00718	-14.87521	11.27051
11.01137	-14.87521	11.27051
11.01555	-14.87521	11.27051
11.01976	-14.87521	11.27051
11.02395	-14.89718	11.27051
11.02815	-14.89718	11.27051
11.03255	-14.89718	11.27051
11.03677	-14.87521	11.27051
11.04106	-14.89718	11.27051
11.04525	-14.87521	11.27051
11.04943	-14.87521	11.27051
11.05362	-14.87521	11.27051
11.05780	-14.89718	11.27051
11.06208	-14.87521	11.27051
11.06636	-14.89718	11.27051
11.07056	-14.89718	11.27051
11.07475	-14.89718	11.27051
11.07893	-14.89718	11.27051
11.08312	-14.89718	11.27051
11.08732	-14.89718	11.27051
11.09161	-14.89718	11.27051
11.09589	-14.89718	11.27051
11.10009	-14.89718	11.27051
11.10429	-14.89718	11.27051
11.10848	-14.89718	11.27051
11.11266	-14.89718	11.27051
11.11685	-14.89718	11.27051
11.12105	-14.89718	11.27051
11.12536	-14.89718	11.27051
11.12957	-14.89718	11.27051
11.13376	-14.89718	11.27051
11.13795	-14.89718	11.27051
11.14224	-14.89718	11.27051
11.14641	-14.89718	11.27051
11.15059	-14.89718	11.27051
11.15500	-14.91916	11.27051
11.15921	-14.89718	11.27051
11.16340	-14.91916	11.27051
11.16758	-14.91916	11.27051
11.17177	-14.89718	11.27051
11.17596	-14.91916	11.27051
11.18014	-14.91916	11.27051
11.18441	-14.91916	11.27051
11.18868	-14.89718	11.27051
11.19288	-14.89718	11.27051
11.19707	-14.91916	11.27051
11.20125	-14.91916	11.27051
11.20544	-14.91916	11.27051
11.20963	-14.91916	11.27051
11.21390	-14.91916	11.27051
11.21818	-14.91916	11.27051
11.22242	-14.91916	11.27051
11.22662	-14.91916	11.27051
11.23081	-14.91916	11.27051
11.23500	-14.91916	11.27051
11.23918	-14.91916	11.27051
11.24347	-14.91916	11.27051
11.24777	-14.91916	11.27051
11.25199	-14.91916	11.27051
11.25617	-14.91916	11.27051
11.26037	-14.91916	11.27051
11.26456	-14.91916	11.27051
11.26874	-14.91916	11.27051
11.27293	-14.91916	11.27051
11.27733	-14.91916	11.27051
11.28154	-14.91916	11.27051
11.28573	-14.91916	11.27051
11.28992	-14.91916	11.27051
11.29411	-14.91916	11.27051
11.29830	-14.91916	11.27051
11.30249	-14.91916	11.27051
11.30677	-14.94113	11.27051
11.31105	-14.91916	11.27051
11.31525	-14.91916	11.27051
11.31946	-14.91916	11.27051
11.32366	-14.91916	11.27051
11.32785	-14.91916	11.27051
11.33205	-14.91916	11.27051
11.33633	-14.91916	11.27051
11.34061	-14.94113	11.27051
11.34491	-14.91916	11.27051
11.34911	-14.91916	11.27051
11.35330	-14.94113	11.27051
11.35750	-14.91916	11.27051
11.36169	-14.91916	11.27051
11.36588	-14.94113	11.27051
11.37018	-14.91916	11.27051
11.37441	-14.94113	11.27051
11.37860	-14.91916	11.27051
11.38279	-14.91916	11.27051
11.38699	-14.91916	11.27051
11.39118	-14.91916	11.27051
11.39536	-14.94113	11.27051
11.39980	-14.94113	11.27051
11.40402	-14.94113	11.27051
11.40822	-14.94113	11.27051
11.41241	-14.94113	11.27051
11.41660	-14.94113	11.27051
11.42081	-14.94113	11.27051
11.42500	-14.94113	11.27051
11.42928	-14.91916	11.27051
11.43355	-14.94113	11.27051
11.43776	-14.94113	11.27051
11.44196	-14.94113	11.27051
11.44625	-14.94113	11.27051
11.45041	-14.94113	11.27051
11.45460	-14.94113	11.27051
11.45887	-14.94113	11.27051
11.46315	-14.94113	11.27051
11.46734	-14.94113	11.27051
11.47153	-14.94113	11.27051
11.47572	-14.94113	11.27051
11.47990	-14.94113	11.27051
11.48411	-14.94113	11.27051
11.48830	-14.94113	11.27051
11.49260	-14.94113	11.27051
11.49681	-14.94113	11.27051
11.50100	-14.94113	11.27051
11.50519	-14.94113	11.27051
11.50937	-14.96310	11.27051
11.51356	-14.94113	11.27051
11.51774	-14.96310	11.27051
11.52216	-14.94113	11.27051
11.52639	-14.94113	11.27051
11.53058	-14.96310	11.27051
11.53477	-14.96310	11.27051
11.53896	-14.96310	11.27051
11.54314	-14.96310	11.27051
11.54744	-14.96310	11.27051
11.55172	-14.96310	11.27051
11.55598	-14.96310	11.27051
11.56018	-14.96310	11.27051
11.56437	-14.96310	11.27051
11.56856	-14.98507	11.27051
11.57275	-14.96310	11.27051
11.57693	-14.96310	11.27051
11.58119	-14.98507	11.27051
11.58546	-14.96310	11.27051
11.58966	-14.96310	11.27051
11.59385	-14.98507	11.27051
11.59804	-14.98507	11.27051
11.60222	-14.98507	11.27051
11.60640	-14.98507	11.27051
11.61059	-14.98507	11.27051
11.61488	-14.98507	11.27051
11.61908	-14.98507	11.27051
11.62329	-14.98507	11.27051
11.62749	-14.98507	11.27051
11.63168	-14.98507	11.27051
11.63587	-14.98507	11.27051
11.64006	-15.00705	11.27051
11.64443	-14.98507	11.27051
11.64876	-15.00705	11.27051
11.65295	-15.00705	11.27051
11.65714	-15.00705	11.27051
11.66133	-15.00705	11.27051
11.66552	-15.00705	11.27051
11.66971	-15.00705	11.27051
11.67399	-15.00705	11.27051
11.67825	-15.00705	11.27051
11.68241	-15.00705	11.27051
11.68660	-15.02902	11.27051
11.69079	-15.00705	11.27051
11.69497	-15.02902	11.27051
11.69915	-15.02902	11.27051
11.70341	-15.02902	11.27051
11.70769	-15.02902	11.27051
11.71189	-15.02902	11.27051
11.71608	-15.02902	11.27051
11.72029	-15.05099	11.27051
11.72448	-15.02902	11.27051
11.72867	-15.05099	11.27051
11.73286	-15.05099	11.27051
11.73717	-15.05099	11.27051
11.74138	-15.05099	11.27051
11.74557	-15.07297	11.27051
11.74986	-15.05099	11.27051
11.75404	-15.07297	11.27051
11.75823	-15.07297	11.27051
11.76240	-15.07297	11.27051
11.76681	-15.07297	11.27051
11.77102	-15.07297	11.27051
11.77521	-15.07297	11.27051
11.77939	-15.09494	11.27051
11.78358	-15.07297	11.27051
11.78777	-15.07297	11.27051
11.79195	-15.09494	11.27051
11.79622	-15.09494	11.27051
11.80048	-15.09494	11.27051
11.80468	-15.11691	11.27051
11.80887	-15.09494	11.27051
11.81306	-15.09494	11.27051
11.81724	-15.09494	11.27051
11.82145	-15.11691	11.27051
11.82572	-15.11691	11.27051
11.83001	-15.11691	11.27051
11.83421	-15.11691	11.27051
11.83840	-15.11691	11.27051
11.84259	-15.11691	11.27051
11.84679	-15.11691	11.27051
11.85108	-15.11691	11.27051
11.85527	-15.11691	11.27051
11.85956	-15.13888	11.27051
11.86376	-15.13888	11.27051
11.86795	-15.13888	11.27051
11.87214	-15.11691	11.27051
11.87633	-15.13888	11.27051
11.88052	-15.11691	11.27051
11.88470	-15.13888	11.27051
11.88909	-15.13888	11.27051
11.89329	-15.13888	11.27051
11.89748	-15.13888	11.27051
11.90167	-15.13888	11.27051
11.90586	-15.13888	11.27051
11.91004	-15.13888	11.27051
11.91423	-15.16086	11.27051
11.91851	-15.16086	11.27051
11.92278	-15.16086	11.27051
11.92698	-15.16086	11.27051
11.93116	-15.13888	11.27051
11.93535	-15.16086	11.27051
11.93954	-15.13888	11.27051
11.94372	-15.13888	11.27051
11.94798	-15.16086	11.27051
11.95236	-15.16086	11.27051
11.95656	-15.16086	11.27051
11.96074	-15.16086	11.27051
11.96495	-15.16086	11.27051
11.96914	-15.16086	11.27051
11.97334	-15.16086	11.27051
11.97752	-15.13888	11.27051
11.98182	-15.16086	11.27051
11.98603	-15.16086	11.27051
11.99022	-15.16086	11.27051
11.99440	-15.16086	11.27051
11.99859	-15.16086	11.27051
12.00277	-15.13888	11.27051
12.00696	-15.16086	11.27051
12.01136	-15.13888	11.27051
12.01556	-15.16086	11.27051
12.01980	-15.13888	11.27051
12.02400	-15.13888	11.27051
12.02819	-15.13888	11.27051
12.03238	-15.13888	11.27051
12.03657	-15.13888	11.27051
12.04083	-15.13888	11.27051
12.04510	-15.13888	11.27051
12.04929	-15.13888	11.27051
12.05359	-15.13888	11.27051
12.05777	-15.13888	11.27051
12.06196	-15.13888	11.27051
12.06614	-15.13888	11.27051
12.07041	-15.13888	11.27051
12.07469	-15.13888	11.27051
12.07889	-15.13888	11.27051
12.08308	-15.13888	11.27051
12.08726	-15.13888	11.27051
12.09145	-15.11691	11.27051
12.09564	-15.11691	11.27051
12.09982	-15.11691	11.27051
12.10411	-15.11691	11.27051
12.10831	-15.11691	11.27051
12.11250	-15.11691	11.27051
12.11668	-15.11691	11.27051
12.12089	-15.11691	11.27051
12.12509	-15.11691	11.27051
12.12927	-15.11691	11.27051
12.13368	-15.11691	11.27051
12.13789	-15.11691	11.27051
12.14208	-15.09494	11.27051
12.14628	-15.09494	11.27051
12.15047	-15.11691	11.27051
12.15476	-15.09494	11.27051
12.15894	-15.09494	11.27051
12.16321	-15.09494	11.27051
12.16747	-15.07297	11.27051
12.17167	-15.09494	11.27051
12.17586	-15.09494	11.27051
12.18005	-15.09494	11.27051
12.18423	-15.09494	11.27051
12.18842	-15.09494	11.27051
12.19268	-15.07297	11.27051
12.19695	-15.09494	11.27051
12.20115	-15.07297	11.27051
12.20534	-15.07297	11.27051
12.20953	-15.07297	11.27051
12.21372	-15.07297	11.27051
12.21790	-15.07297	11.27051
12.22211	-15.07297	11.27051
12.22643	-15.07297	11.27051
12.23063	-15.07297	11.27051
12.23483	-15.07297	11.27051
12.23902	-15.07297	11.27051
12.24321	-15.05099	11.27051
12.24739	-15.05099	11.27051
12.25158	-15.05099	11.27051
12.25611	-15.07297	11.27051
12.26031	-15.05099	11.27051
12.26450	-15.05099	11.27051
12.26869	-15.05099	11.27051
12.27288	-15.05099	11.27051
12.27706	-15.05099	11.27051
12.28125	-15.05099	11.27051
12.28552	-15.05099	11.27051
12.28979	-15.05099	11.27051
12.29398	-15.05099	11.27051
12.29817	-15.05099	11.27051
12.30237	-15.05099	11.27051
12.30656	-15.05099	11.27051
12.31075	-15.05099	11.27051
12.31504	-15.05099	11.27051
12.31933	-15.05099	11.27051
12.32355	-15.05099	11.27051
12.32774	-15.05099	11.27051
12.33193	-15.05099	11.27051
12.33611	-15.05099	11.27051
12.34030	-15.05099	11.27051
12.34448	-15.05099	11.27051
12.34878	-15.05099	11.27051
12.35300	-15.05099	11.27051
12.35730	-15.05099	11.27051
12.36148	-15.05099	11.27051
12.36567	-15.05099	11.27051
12.36986	-15.05099	11.27051
12.37406	-15.05099	11.27051
12.37850	-15.05099	11.27051
12.38272	-15.05099	11.27051
12.38691	-15.05099	11.27051
12.39110	-15.05099	11.27051
12.39528	-15.05099	11.27051
12.39947	-15.05099	11.27051
12.40366	-15.05099	11.27051
12.40793	-15.05099	11.27051
12.41221	-15.05099	11.27051
12.41640	-15.05099	11.27051
12.42061	-15.05099	11.27051
12.42481	-15.05099	11.27051
12.42900	-15.05099	11.27051
12.43319	-15.05099	11.27051
12.43745	-15.05099	11.27051
12.44175	-15.05099	11.27051
12.44595	-15.05099	11.27051
12.45014	-15.05099	11.27051
12.45434	-15.05099	11.27051
12.45865	-15.05099	11.27051
12.46284	-15.05099	11.27051
12.46703	-15.07297	11.27051
12.47133	-15.07297	11.27051
12.47553	-15.07297	11.27051
12.47972	-15.05099	11.27051
12.48390	-15.07297	11.27051
12.48809	-15.07297	11.27051
12.49228	-15.07297	11.27051
12.49646	-15.07297	11.27051
12.50086	-15.07297	11.27051
12.50507	-15.07297	11.27051
12.50926	-15.07297	11.27051
12.51345	-15.07297	11.27051
12.51763	-15.07297	11.27051
12.52183	-15.07297	11.27051
12.52602	-15.09494	11.27051
12.53031	-15.09494	11.27051
12.53457	-15.07297	11.27051
12.53876	-15.09494	11.27051
12.54295	-15.09494	11.27051
12.54713	-15.07297	11.27051
12.55132	-15.09494	11.27051
12.55550	-15.09494	11.27051
12.55986	-15.09494	11.27051
12.56413	-15.09494	11.27051
12.56833	-15.09494	11.27051
12.57251	-15.09494	11.27051
12.57670	-15.09494	11.27051
12.58088	-15.09494	11.27051
12.58507	-15.09494	11.27051
12.58925	-15.09494	11.27051
12.59355	-15.09494	11.27051
12.59775	-15.09494	11.27051
12.60194	-15.09494	11.27051
12.60612	-15.09494	11.27051
12.61032	-15.09494	11.27051
12.61451	-15.09494	11.27051
12.61869	-15.09494	11.27051
12.62310	-15.11691	11.27051
12.62732	-15.09494	11.27051
12.63151	-15.09494	11.27051
12.63570	-15.09494	11.27051
12.63989	-15.09494	11.27051
12.64407	-15.09494	11.27051
12.64825	-15.11691	11.27051
12.65252	-15.09494	11.27051
12.65677	-15.11691	11.27051
12.66107	-15.11691	11.27051
12.66525	-15.09494	11.27051
12.66944	-15.09494	11.27051
12.67363	-15.09494	11.27051
12.67781	-15.09494	11.27051
12.68206	-15.09494	11.27051
12.68635	-15.11691	11.27051
12.69055	-15.09494	11.27051
12.69483	-15.09494	11.27051
12.69904	-15.09494	11.27051
12.70323	-15.09494	11.27051
12.70742	-15.09494	11.27051
12.71161	-15.09494	11.27051
12.71591	-15.09494	11.27051
12.72012	-15.09494	11.27051
12.72432	-15.09494	11.27051
12.72851	-15.09494	11.27051
12.73270	-15.09494	11.27051
12.73688	-15.09494	11.27051
12.74107	-15.09494	11.27051
12.74547	-15.09494	11.27051
12.74968	-15.09494	11.27051
12.75387	-15.09494	11.27051
12.75807	-15.07297	11.27051
12.76238	-15.07297	11.27051
12.76656	-15.07297	11.27051
12.77076	-15.07297	11.27051
12.77503	-15.07297	11.27051
12.77930	-15.09494	11.27051
12.78350	-15.07297	11.27051
12.78770	-15.07297	11.27051
12.79188	-15.07297	11.27051
12.79607	-15.07297	11.27051
12.80026	-15.07297	11.27051
12.80452	-15.07297	11.27051
12.80879	-15.05099	11.27051
12.81299	-15.07297	11.27051
12.81718	-15.07297	11.27051
12.82139	-15.05099	11.27051
12.82558	-15.05099	11.27051
12.82978	-15.05099	11.27051
12.83397	-15.05099	11.27051
12.83829	-15.05099	11.27051
12.84250	-15.02902	11.27051
12.84669	-15.02902	11.27051
12.85087	-15.05099	11.27051
12.85506	-15.02902	11.27051
12.85925	-15.02902	11.27051
12.86354	-15.02902	11.27051
12.86792	-15.02902	11.27051
12.87213	-15.02902	11.27051
12.87632	-15.02902	11.27051
12.88051	-15.00705	11.27051
12.88469	-15.02902	11.27051
12.88888	-15.00705	11.27051
12.89306	-15.02902	11.27051
12.89734	-15.02902	11.27051
12.90160	-15.00705	11.27051
12.90579	-15.00705	11.27051
12.90998	-15.00705	11.27051
12.91416	-15.00705	11.27051
12.91836	-15.00705	11.27051
12.92256	-15.00705	11.27051
12.92682	-15.00705	11.27051
12.93110	-15.00705	11.27051
12.93530	-15.00705	11.27051
12.93949	-14.98507	11.27051
12.94367	-14.98507	11.27051
12.94786	-14.98507	11.27051
12.95204	-14.98507	11.27051
12.95623	-14.98507	11.27051
12.96052	-14.98507	11.27051
12.96483	-14.98507	11.27051
12.96902	-14.98507	11.27051
12.97321	-14.98507	11.27051
12.97740	-14.98507	11.27051
12.98158	-14.98507	11.27051
12.98577	-14.96310	11.27051
12.99020	-14.96310	11.27051
12.99441	-14.98507	11.27051
12.99860	-14.96310	11.27051
13.00278	-14.98507	11.27051
13.00697	-14.98507	11.27051
13.01115	-14.96310	11.27051
13.01533	-14.96310	11.27051
13.01962	-14.96310	11.27051
13.02391	-14.94113	11.27051
13.02811	-14.94113	11.27051
13.03230	-14.96310	11.27051
13.03650	-14.96310	11.27051
13.04069	-14.96310	11.27051
13.04487	-14.94113	11.27051
13.04914	-14.94113	11.27051
13.05342	-14.94113	11.27051
13.05762	-14.94113	11.27051
13.06180	-14.94113	11.27051
13.06609	-14.94113	11.27051
13.07029	-14.91916	11.27051
13.07447	-14.94113	11.27051
13.07866	-14.91916	11.27051
13.08295	-14.91916	11.27051
13.08716	-14.91916	11.27051
13.09134	-14.91916	11.27051
13.09553	-14.91916	11.27051
13.09971	-14.91916	11.27051
13.10389	-14.91916	11.27051
13.10808	-14.91916	11.27051
13.11246	-14.91916	11.27051
13.11667	-14.91916	11.27051
13.12086	-14.91916	11.27051
13.12506	-14.91916	11.27051
13.12926	-14.89718	11.27051
13.13344	-14.89718	11.27051
13.13763	-14.89718	11.27051
13.14190	-14.89718	11.27051
13.14617	-14.89718	11.27051
13.15038	-14.89718	11.27051
13.15456	-14.89718	11.27051
13.15875	-14.89718	11.27051
13.16294	-14.89718	11.27051
13.16722	-14.89718	11.27051
13.17148	-14.87521	11.27051
13.17575	-14.87521	11.27051
13.17995	-14.87521	11.27051
13.18413	-14.87521	11.27051
13.18833	-14.87521	11.27051
13.19253	-14.87521	11.27051
13.19673	-14.87521	11.27051
13.20092	-14.85324	11.27051
13.20521	-14.85324	11.27051
13.20941	-14.85324	11.27051
13.21360	-14.85324	11.27051
13.21779	-14.85324	11.27051
13.22200	-14.85324	11.27051
13.22620	-14.83127	11.27051
13.23040	-14.85324	11.27051
13.23482	-14.85324	11.27051
13.23903	-14.85324	11.27051
13.24322	-14.85324	11.27051
13.24740	-14.85324	11.27051
13.25159	-14.83127	11.27051
13.25578	-14.85324	11.27051
13.25997	-14.83127	11.27051
13.26424	-14.83127	11.27051
13.26860	-14.83127	11.27051
13.27280	-14.83127	11.27051
13.27699	-14.83127	11.27051
13.28118	-14.83127	11.27051
13.28536	-14.83127	11.27051
13.28955	-14.83127	11.27051
13.29381	-14.83127	11.27051
13.29808	-14.83127	11.27051
13.30230	-14.83127	11.27051
13.30649	-14.83127	11.27051
13.31069	-14.83127	11.27051
13.31488	-14.83127	11.27051
13.31907	-14.80929	11.27051
13.32327	-14.80929	11.27051
13.32759	-14.83127	11.27051
13.33179	-14.80929	11.27051
13.33598	-14.83127	11.27051
13.34017	-14.80929	11.27051
13.34436	-14.80929	11.27051
13.34854	-14.80929	11.27051
13.35273	-14.80929	11.27051
13.35713	-14.80929	11.27051
13.36133	-14.83127	11.27051
13.36552	-14.80929	11.27051
13.36983	-14.80929	11.27051
13.37403	-14.80929	11.27051
13.37823	-14.80929	11.27051
13.38241	-14.80929	11.27051
13.38668	-14.80929	11.27051
13.39095	-14.80929	11.27051
13.39514	-14.80929	11.27051
13.39933	-14.80929	11.27051
13.40352	-14.80929	11.27051
13.40771	-14.80929	11.27051
13.41190	-14.80929	11.27051
13.41616	-14.78732	11.27051
13.42044	-14.80929	11.27051
13.42466	-14.80929	11.27051
13.42885	-14.80929	11.27051
13.43304	-14.80929	11.27051
13.43722	-14.78732	11.27051
13.44142	-14.78732	11.27051
13.44561	-14.80929	11.27051
13.44991	-14.80929	11.27051
13.45412	-14.78732	11.27051
13.45832	-14.80929	11.27051
13.46250	-14.78732	11.27051
13.46669	-14.78732	11.27051
13.47098	-14.78732	11.27051
13.47516	-14.78732	11.27051
13.47954	-14.78732	11.27051
13.48375	-14.78732	11.27051
13.48794	-14.78732	11.27051
13.49213	-14.78732	11.27051
13.49632	-14.78732	11.27051
13.50050	-14.78732	11.27051
13.50468	-14.78732	11.27051
13.50895	-14.78732	11.27051
13.51321	-14.78732	11.27051
13.51740	-14.78732	11.27051
13.52159	-14.78732	11.27051
13.52580	-14.78732	11.27051
13.53000	-14.78732	11.27051
13.53419	-14.78732	11.27051
13.53845	-14.78732	11.27051
13.54274	-14.78732	11.27051
13.54695	-14.78732	11.27051
13.55114	-14.78732	11.27051
13.55533	-14.76535	11.27051
13.55952	-14.76535	11.27051
13.56370	-14.78732	11.27051
13.56789	-14.78732	11.27051
13.57229	-14.76535	11.27051
13.57648	-14.78732	11.27051
13.58068	-14.76535	11.27051
13.58487	-14.76535	11.27051
13.58905	-14.78732	11.27051
13.59324	-14.78732	11.27051
13.59742	-14.78732	11.27051
13.60181	-14.78732	11.27051
13.60602	-14.76535	11.27051
13.61021	-14.78732	11.27051
13.61440	-14.78732	11.27051
13.61859	-14.78732	11.27051
13.62279	-14.78732	11.27051
13.62699	-14.76535	11.27051
13.63127	-14.78732	11.27051
13.63553	-14.78732	11.27051
13.63973	-14.78732	11.27051
13.64391	-14.78732	11.27051
13.64810	-14.78732	11.27051
13.65228	-14.78732	11.27051
13.65647	-14.78732	11.27051
13.66072	-14.78732	11.27051
13.66499	-14.78732	11.27051
13.66920	-14.78732	11.27051
13.67349	-14.78732	11.27051
13.67767	-14.78732	11.27051
13.68186	-14.78732	11.27051
13.68605	-14.78732	11.27051
13.69023	-14.78732	11.27051
13.69452	-14.78732	11.27051
13.69872	-14.78732	11.27051
13.70290	-14.78732	11.27051
13.70709	-14.78732	11.27051
13.71128	-14.78732	11.27051
13.71546	-14.78732	11.27051
13.71965	-14.78732	11.27051
13.72406	-14.78732	11.27051
13.72828	-14.78732	11.27051
13.73247	-14.78732	11.27051
13.73666	-14.78732	11.27051
13.74085	-14.78732	11.27051
13.74504	-14.80929	11.27051
13.74922	-14.78732	11.27051
13.75349	-14.80929	11.27051
13.75775	-14.78732	11.27051
13.76195	-14.80929	11.27051
13.76614	-14.80929	11.27051
13.77034	-14.80929	11.27051
13.77463	-14.80929	11.27051
13.77881	-14.80929	11.27051
13.78307	-14.78732	11.27051
13.78735	-14.80929	11.27051
13.79155	-14.80929	11.27051
13.79574	-14.80929	11.27051
13.79992	-14.80929	11.27051
13.80411	-14.80929	11.27051
13.80830	-14.80929	11.27051
13.81248	-14.80929	11.27051
13.81677	-14.80929	11.27051
13.82098	-14.80929	11.27051
13.82518	-14.80929	11.27051
13.82937	-14.80929	11.27051
13.83356	-14.80929	11.27051
13.83775	-14.80929	11.27051
13.84193	-14.80929	11.27051
13.84636	-14.80929	11.27051
13.85057	-14.80929	11.27051
13.85476	-14.80929	11.27051
13.85895	-14.80929	11.27051
13.86313	-14.80929	11.27051
13.86732	-14.80929	11.27051
13.87150	-14.80929	11.27051
13.87591	-14.80929	11.27051
13.88016	-14.80929	11.27051
13.88435	-14.83127	11.27051
13.88854	-14.80929	11.27051
13.89273	-14.80929	11.27051
13.89692	-14.80929	11.27051
13.90110	-14.80929	11.27051
13.90535	-14.80929	11.27051
13.90963	-14.83127	11.27051
13.91382	-14.80929	11.27051
13.91801	-14.83127	11.27051
13.92220	-14.83127	11.27051
13.92639	-14.80929	11.27051
13.93058	-14.80929	11.27051
13.93476	-14.80929	11.27051
13.93906	-14.80929	11.27051
13.94326	-14.83127	11.27051
13.94745	-14.80929	11.27051
13.95164	-14.80929	11.27051
13.95582	-14.83127	11.27051
13.96001	-14.83127	11.27051
13.96419	-14.83127	11.27051
13.96858	-14.83127	11.27051
13.97279	-14.80929	11.27051
13.97707	-14.83127	11.27051
13.98126	-14.83127	11.27051
13.98544	-14.83127	11.27051
13.98963	-14.83127	11.27051
13.99381	-14.83127	11.27051
13.99808	-14.83127	11.27051
14.00236	-14.83127	11.27051
14.00655	-14.83127	11.27051
14.01073	-14.83127	11.27051
14.01492	-14.83127	11.27051
14.01910	-14.85324	11.27051
14.02329	-14.83127	11.27051
14.02754	-14.85324	11.27051
14.03182	-14.83127	11.27051
14.03602	-14.83127	11.27051
14.04021	-14.85324	11.27051
14.04439	-14.83127	11.27051
14.04858	-14.85324	11.27051
14.05277	-14.85324	11.27051
14.05695	-14.85324	11.27051
14.06124	-14.85324	11.27051
14.06544	-14.85324	11.27051
14.06963	-14.85324	11.27051
14.07382	-14.85324	11.27051
14.07810	-14.85324	11.27051
14.08230	-14.85324	11.27051
14.08648	-14.85324	11.27051
14.09087	-14.85324	11.27051
14.09507	-14.85324	11.27051
14.09926	-14.85324	11.27051
14.10344	-14.87521	11.27051
14.10763	-14.87521	11.27051
14.11181	-14.85324	11.27051
14.11600	-14.85324	11.27051
14.12027	-14.87521	11.27051
14.12453	-14.87521	11.27051
14.12872	-14.87521	11.27051
14.13291	-14.87521	11.27051
14.13709	-14.87521	11.27051
14.14128	-14.87521	11.27051
14.14546	-14.87521	11.27051
14.14972	-14.87521	11.27051
14.15400	-14.87521	11.27051
14.15820	-14.89718	11.27051
14.16240	-14.89718	11.27051
14.16658	-14.89718	11.27051
14.17077	-14.87521	11.27051
14.17495	-14.89718	11.27051
14.17924	-14.89718	11.27051
14.18353	-14.89718	11.27051
14.18774	-14.89718	11.27051
14.19193	-14.89718	11.27051
14.19611	-14.89718	11.27051
14.20029	-14.89718	11.27051
14.20448	-14.91916	11.27051
14.20866	-14.89718	11.27051
14.21305	-14.91916	11.27051
14.21727	-14.91916	11.27051
14.22146	-14.91916	11.27051
14.22565	-14.91916	11.27051
14.22984	-14.91916	11.27051
14.23403	-14.91916	11.27051
14.23821	-14.91916	11.27051
14.24251	-14.91916	11.27051
14.24677	-14.91916	11.27051
14.25097	-14.91916	11.27051
14.25516	-14.94113	11.27051
14.25935	-14.94113	11.27051
14.26353	-14.94113	11.27051
14.26772	-14.94113	11.27051
14.27197	-14.94113	11.27051
14.27625	-14.94113	11.27051
14.28055	-14.96310	11.27051
14.28474	-14.96310	11.27051
14.28893	-14.96310	11.27051
14.29312	-14.96310	11.27051
14.29730	-14.96310	11.27051
14.30149	-14.96310	11.27051
14.30578	-14.96310	11.27051
14.31000	-14.98507	11.27051
14.31420	-14.96310	11.27051
14.31840	-14.98507	11.27051
14.32259	-14.98507	11.27051
14.32677	-14.98507	11.27051
14.33096	-14.98507	11.27051
14.33538	-14.98507	11.27051
14.33959	-14.98507	11.27051
14.34378	-14.98507	11.27051
14.34796	-14.98507	11.27051
14.35215	-14.98507	11.27051
14.35634	-15.00705	11.27051
14.36053	-15.00705	11.27051
14.36483	-15.00705	11.27051
14.36910	-15.00705	11.27051
14.37329	-15.00705	11.27051
14.37748	-15.00705	11.27051
14.38177	-15.00705	11.27051
14.38597	-15.02902	11.27051
14.39016	-15.02902	11.27051
14.39445	-15.02902	11.27051
14.39874	-15.02902	11.27051
14.40294	-15.02902	11.27051
14.40713	-15.02902	11.27051
14.41132	-15.02902	11.27051
14.41551	-15.05099	11.27051
14.41970	-15.05099	11.27051
14.42388	-15.05099	11.27051
14.42819	-15.05099	11.27051
14.43239	-15.05099	11.27051
14.43659	-15.05099	11.27051
14.44081	-15.07297	11.27051
14.44501	-15.07297	11.27051
14.44919	-15.07297	11.27051
14.45338	-15.07297	11.27051
14.45778	-15.07297	11.27051
14.46199	-15.07297	11.27051
14.46618	-15.09494	11.27051
14.47038	-15.09494	11.27051
14.47457	-15.09494	11.27051
14.47876	-15.09494	11.27051
14.48305	-15.09494	11.27051
14.48732	-15.11691	11.27051
14.49158	-15.11691	11.27051
14.49578	-15.11691	11.27051
14.49996	-15.11691	11.27051
14.50415	-15.13888	11.27051
14.50833	-15.13888	11.27051
14.51252	-15.13888	11.27051
14.51678	-15.13888	11.27051
14.52106	-15.13888	11.27051
14.52526	-15.13888	11.27051
14.52945	-15.13888	11.27051
14.53363	-15.16086	11.27051
14.53783	-15.16086	11.27051
14.54201	-15.16086	11.27051
14.54620	-15.16086	11.27051
14.55051	-15.16086	11.27051
14.55471	-15.18283	11.27051
14.55890	-15.18283	11.27051
14.56309	-15.18283	11.27051
14.56727	-15.18283	11.27051
14.57146	-15.20480	11.27051
14.57564	-15.20480	11.27051
14.58003	-15.20480	11.27051
14.58434	-15.22677	11.27051
14.58853	-15.22677	11.27051
14.59272	-15.22677	11.27051
14.59691	-15.22677	11.27051
14.60109	-15.24875	11.27051
14.60527	-15.24875	11.27051
14.60955	-15.24875	11.27051
14.61381	-15.24875	11.27051
14.61802	-15.27072	11.27051
14.62220	-15.27072	11.27051
14.62640	-15.27072	11.27051
14.63058	-15.29269	11.27051
14.63477	-15.29269	11.27051
14.63903	-15.29269	11.27051
14.64331	-15.29269	11.27051
14.64751	-15.31466	11.27051
14.65170	-15.31466	11.27051
14.65588	-15.33664	11.27051
14.66007	-15.33664	11.27051
14.66425	-15.33664	11.27051
14.66843	-15.35861	11.27051
14.67272	-15.35861	11.27051
14.67693	-15.35861	11.27051
14.68111	-15.35861	11.27051
14.68540	-15.38058	11.27051
14.68959	-15.38058	11.27051
14.69378	-15.38058	11.27051
14.69796	-15.38058	11.27051
14.70237	-15.40256	11.27051
14.70657	-15.40256	11.27051
14.71076	-15.40256	11.27051
14.71494	-15.42453	11.27051
14.71913	-15.42453	11.27051
14.72331	-15.42453	11.27051
14.72751	-15.44650	11.27051
14.73178	-15.44650	11.27051
14.73606	-15.46847	11.27051
14.74026	-15.46847	11.27051
14.74445	-15.46847	11.27051
14.74863	-15.46847	11.27051
14.75282	-15.49045	11.27051
14.75700	-15.49045	11.27051
14.76126	-15.51242	11.27051
14.76554	-15.51242	11.27051
14.76974	-15.51242	11.27051
14.77393	-15.51242	11.27051
14.77812	-15.53439	11.27051
14.78232	-15.53439	11.27051
14.78660	-15.55636	11.27051
14.79079	-15.55636	11.27051
14.79509	-15.55636	11.27051
14.79929	-15.55636	11.27051
14.80348	-15.55636	11.27051
14.80767	-15.57834	11.27051
14.81186	-15.60031	11.27051
14.81604	-15.60031	11.27051
14.82022	-15.60031	11.27051
14.82466	-15.62228	11.27051
14.82887	-15.62228	11.27051
14.83305	-15.62228	11.27051
14.83724	-15.64425	11.27051
14.84143	-15.64425	11.27051
14.84561	-15.66623	11.27051
14.84980	-15.66623	11.27051
14.85406	-15.66623	11.27051
14.85833	-15.66623	11.27051
14.86253	-15.68820	11.27051
14.86672	-15.68820	11.27051
14.87091	-15.71017	11.27051
14.87509	-15.71017	11.27051
14.87928	-15.71017	11.27051
14.88354	-15.73214	11.27051
14.88792	-15.73214	11.27051
14.89212	-15.73214	11.27051
14.89631	-15.73214	11.27051
14.90049	-15.75412	11.27051
14.90468	-15.75412	11.27051
14.90887	-15.77609	11.27051
14.91305	-15.77609	11.27051
14.91735	-15.77609	11.27051
14.92155	-15.77609	11.27051
14.92574	-15.77609	11.27051
14.92992	-15.79806	11.27051
14.93410	-15.79806	11.27051
14.93830	-15.82004	11.27051
14.94249	-15.82004	11.27051
14.94691	-15.82004	11.27051
14.95112	-15.82004	11.27051
14.95531	-15.84201	11.27051
14.95950	-15.84201	11.27051
14.96368	-15.86398	11.27051
14.96787	-15.86398	11.27051
14.97205	-15.86398	11.27051
14.97633	-15.88595	11.27051
14.98059	-15.88595	11.27051
14.98478	-15.88595	11.27051
14.98908	-15.90793	11.27051
14.99326	-15.90793	11.27051
14.99746	-15.92990	11.27051
15.00203	-15.92990	5.43429
15.00632	-15.92990	5.43429
15.01061	-15.92990	5.43429
15.01480	-15.95187	5.43429
15.01899	-15.95187	5.43429
15.02318	-15.95187	5.43429
15.02736	-15.97384	5.43429
15.03154	-15.97384	5.43429
15.03572	-15.97384	5.43429
15.04002	-15.99582	5.43429
15.04423	-15.99582	5.43429
15.04841	-15.99582	5.43429
15.05260	-15.99582	5.43429
15.05678	-16.01779	5.43429
15.06097	-16.01779	5.43429
15.06515	-16.01779	5.43429
15.06952	-16.01779	5.43429
15.07373	-16.03976	5.43429
15.07791	-16.01779	5.43429
15.08210	-16.03976	5.43429
15.08630	-16.03976	5.43429
15.09050	-16.03976	5.43429
15.09469	-16.03976	5.43429
15.09897	-16.06173	5.43429
15.10335	-16.03976	5.43429
15.10755	-16.06173	5.43429
15.11173	-16.03976	5.43429
15.11592	-16.03976	5.43429
15.12011	-16.06173	5.43429
15.12429	-16.06173	5.43429
15.12857	-16.06173	5.43429
15.13285	-16.06173	5.43429
15.13705	-16.03976	5.43429
15.14124	-16.03976	5.43429
15.14543	-16.03976	5.43429
15.14962	-16.03976	5.43429
15.15380	-16.03976	5.43429
15.15798	-16.03976	5.43429
15.16230	-16.01779	5.43429
15.16651	-16.01779	5.43429
15.17070	-16.01779	5.43429
15.17489	-15.99582	5.43429
15.17907	-16.01779	5.43429
15.18326	-15.99582	5.43429
15.18745	-15.97384	5.43429
15.19188	-15.97384	5.43429
15.19609	-15.97384	5.43429
15.20028	-15.95187	5.43429
15.20457	-15.95187	5.43429
15.20876	-15.92990	5.43429
15.21294	-15.92990	5.43429
15.21713	-15.90793	5.43429
15.22140	-15.90793	5.43429
15.22566	-15.88595	5.43429
15.22986	-15.88595	5.43429
15.23405	-15.84201	5.43429
15.23824	-15.84201	5.43429
15.24240	-15.82004	5.43429
15.24659	-15.82004	5.43429
15.25086	-15.79806	5.43429
15.25515	-15.77609	5.43429
15.25934	-15.75412	5.43429
15.26353	-15.75412	5.43429
15.26772	-15.71017	5.43429
15.27190	-15.71017	5.43429
15.27609	-15.71017	5.43429
15.28027	-15.66623	5.43429
15.28457	-15.64425	5.43429
15.28878	-15.62228	5.43429
15.29296	-15.60031	5.43429
15.29715	-15.60031	5.43429
15.30134	-15.57834	5.43429
15.30563	-15.55636	5.43429
15.30982	-15.53439	5.43429
15.31424	-15.51242	5.43429
15.31843	-15.46847	5.43429
15.32262	-15.44650	5.43429
15.32681	-15.44650	5.43429
15.33100	-15.40256	5.43429
15.33519	-15.38058	5.43429
15.33937	-15.33664	5.43429
15.34365	-15.31466	5.43429
15.34791	-15.29269	5.43429
15.35211	-15.24875	5.43429
15.35630	-15.24875	5.43429
15.36048	-15.22677	5.43429
15.36466	-15.18283	5.43429
15.36885	-15.13888	5.43429
15.37311	-15.11691	5.43429
15.37739	-15.07297	5.43429
15.38160	-15.07297	5.43429
15.38579	-15.02902	5.43429
15.38997	-15.00705	5.43429
15.39416	-14.96310	5.43429
15.39835	-14.91916	5.43429
15.40254	-14.89718	5.43429
15.40694	-14.89718	5.43429
15.41116	-14.85324	5.43429
15.41535	-14.80929	5.43429
15.41953	-14.76535	5.43429
15.42372	-14.72140	5.43429
15.42790	-14.67746	5.43429
15.43209	-14.67746	5.43429
15.43651	-14.65548	5.43429
15.44072	-14.58957	5.43429
15.44493	-14.56759	5.43429
15.44912	-14.50168	5.43429
15.45331	-14.45773	5.43429
15.45750	-14.45773	5.43429
15.46168	-14.41379	5.43429
15.46596	-14.36984	5.43429
15.47023	-14.32589	5.43429
15.47441	-14.30392	5.43429
15.47860	-14.25998	5.43429
15.48279	-14.25998	5.43429
15.48697	-14.19406	5.43429
15.49116	-14.15011	5.43429
15.49541	-14.10617	5.43429
15.49969	-14.06222	5.43429
15.50391	-13.99631	5.43429
15.50820	-13.99631	5.43429
15.51238	-13.95236	5.43429
15.51657	-13.90841	5.43429
15.52075	-13.86447	5.43429
15.52494	-13.82052	5.43429
15.52923	-13.75461	5.43429
15.53344	-13.71066	5.43429
15.53763	-13.71066	5.43429
15.54182	-13.64474	5.43429
15.54600	-13.60080	5.43429
15.55019	-13.53488	5.43429
15.55438	-13.49093	5.43429
15.55877	-13.44699	5.43429
15.56299	-13.38107	5.43429
15.56718	-13.38107	5.43429
15.57136	-13.33713	5.43429
15.57555	-13.27121	5.43429
15.57973	-13.22726	5.43429
15.58392	-13.18332	5.43429
15.58819	-13.18332	5.43429
15.59245	-13.11740	5.43429
15.59664	-13.05148	5.43429
15.60082	-13.00754	5.43429
15.60501	-12.94162	5.43429
15.60930	-12.89767	5.43429
15.61349	-12.83175	5.43429
15.61774	-12.83175	5.43429
15.62202	-12.76584	5.43429
15.62621	-12.72189	5.43429
15.63040	-12.65597	5.43429
15.63459	-12.59006	5.43429
15.63878	-12.52414	5.43429
15.64296	-12.48019	5.43429
15.64715	-12.48019	5.43429
15.65144	-12.41427	5.43429
15.65564	-12.34836	5.43429
15.65983	-12.28244	5.43429
15.66401	-12.23849	5.43429
15.66820	-12.23849	5.43429
15.67239	-12.17257	5.43429
15.67657	-12.10666	5.43429
15.68095	-12.04074	5.43429
15.68516	-11.97482	5.43429
15.68935	-11.90890	5.43429
15.69353	-11.90890	5.43429
15.69772	-11.84298	5.43429
15.70190	-11.77707	5.43429
15.70609	-11.71115	5.43429
15.71051	-11.64523	5.43429
15.71476	-11.57931	5.43429
15.71895	-11.57931	5.43429
15.72314	-11.51339	5.43429
15.72732	-11.44748	5.43429
15.73151	-11.40353	5.43429
15.73569	-11.31564	5.43429
15.73995	-11.24972	5.43429
15.74422	-11.18381	5.43429
15.74842	-11.18381	5.43429
15.75260	-11.11789	5.43429
15.75679	-11.05197	5.43429
15.76098	-10.98605	5.43429
15.76522	-10.92013	5.43429
15.76942	-10.85422	5.43429
15.77373	-10.78830	5.43429
15.77794	-10.78830	5.43429
15.78212	-10.72238	5.43429
15.78632	-10.63449	5.43429
15.79051	-10.56857	5.43429
15.79469	-10.50265	5.43429
15.79888	-10.50265	5.43429
15.80326	-10.43673	5.43429
15.80747	-10.34884	5.43429
15.81177	-10.28293	5.43429
15.81595	-10.23898	5.43429
15.82013	-10.15109	5.43429
15.82432	-10.08517	5.43429
15.82851	-10.08517	5.43429
15.83279	-9.99728	5.43429
15.83706	-9.93136	5.43429
15.84125	-9.86545	5.43429
15.84544	-9.77756	5.43429
15.84963	-9.73361	5.43429
15.85382	-9.64572	5.43429
15.85800	-9.64572	5.43429
15.86227	-9.57980	5.43429
15.86656	-9.51388	5.43429
15.87076	-9.44797	5.43429
15.87495	-9.36007	5.43429
15.87914	-9.36007	5.43429
15.88332	-9.29416	5.43429
15.88751	-9.22824	5.43429
15.89169	-9.14035	5.43429
15.89599	-9.07443	5.43429
15.90019	-9.00851	5.43429
15.90438	-8.94259	5.43429
15.90857	-8.94259	5.43429
15.91286	-8.85470	5.43429
15.91704	-8.78879	5.43429
15.92123	-8.72287	5.43429
15.92562	-8.63498	5.43429
15.92983	-8.56906	5.43429
15.93402	-8.56906	5.43429
15.93821	-8.50314	5.43429
15.94240	-8.41525	5.43429
15.94658	-8.34933	5.43429
15.95077	-8.28341	5.43429
15.95504	-8.19552	5.43429
15.95931	-8.19552	5.43429
15.96350	-8.12961	5.43429
15.96770	-8.04172	5.43429
15.97189	-7.97580	5.43429
15.97607	-7.90988	5.43429
15.98026	-7.90988	5.43429
15.98453	-7.84396	5.43429
15.98881	-7.77804	5.43429
15.99301	-7.71213	5.43429
15.99720	-7.62423	5.43429
16.00138	-7.55832	5.43429
16.00557	-7.49240	5.43429
16.00976	-7.49240	5.43429
16.01405	-7.40451	5.43429
16.01836	-7.33859	5.43429
16.02256	-7.27267	5.43429
16.02675	-7.20675	5.43429
16.03094	-7.14084	5.43429
16.03513	-7.07492	5.43429
16.03931	-7.07492	5.43429
16.04350	-7.00900	5.43429
16.04790	-6.92111	5.43429
16.05212	-6.85519	5.43429
16.05631	-6.78927	5.43429
16.06049	-6.72336	5.43429
16.06468	-6.72336	5.43429
16.06886	-6.65744	5.43429
16.07305	-6.59152	5.43429
16.07732	-6.52560	5.43429
16.08158	-6.45968	5.43429
16.08578	-6.39377	5.43429
16.08997	-6.39377	5.43429
16.09415	-6.32785	5.43429
16.09835	-6.26193	5.43429
16.10253	-6.17404	5.43429
16.10681	-6.10812	5.43429
16.11109	-6.06418	5.43429
16.11539	-5.99826	5.43429
16.11958	-5.99826	5.43429
16.12377	-5.93234	5.43429
16.12795	-5.86642	5.43429
16.13214	-5.80050	5.43429
16.13632	-5.73459	5.43429
16.14064	-5.66867	5.43429
16.14495	-5.66867	5.43429
16.14918	-5.60275	5.43429
16.15340	-5.55881	5.43429
16.15760	-5.49289	5.43429
16.16180	-5.42697	5.43429
16.16600	-5.36105	5.43429
16.17067	-5.31711	5.43429
16.17489	-5.31711	5.43429
16.17908	-5.25119	5.43429
16.18340	-5.18527	5.43429
16.18759	-5.11935	5.43429
16.19178	-5.05343	5.43429
16.19597	-5.00949	5.43429
16.20024	-5.00949	5.43429
16.20452	-4.94357	5.43429
16.20871	-4.87765	5.43429
16.21291	-4.83371	5.43429
16.21721	-4.76779	5.43429
16.22139	-4.70187	5.43429
16.22558	-4.70187	5.43429
16.22985	-4.65793	5.43429
16.23413	-4.59201	5.43429
16.23834	-4.54806	5.43429
16.24253	-4.50412	5.43429
16.24671	-4.43820	5.43429
16.25090	-4.43820	5.43429
16.25508	-4.39425	5.43429
16.25926	-4.35031	5.43429
16.26356	-4.28439	5.43429
16.26775	-4.21847	5.43429
16.27194	-4.17453	5.43429
16.27612	-4.17453	5.43429
16.28031	-4.13058	5.43429
16.28449	-4.08664	5.43429
16.28867	-4.04269	5.43429
16.29309	-3.99875	5.43429
16.29729	-3.93283	5.43429
16.30148	-3.88888	5.43429
16.30566	-3.88888	5.43429
16.30985	-3.84494	5.43429
16.31404	-3.80099	5.43429
16.31835	-3.75705	5.43429
16.32262	-3.69113	5.43429
16.32689	-3.66916	5.43429
16.33108	-3.62521	5.43429
16.33527	-3.62521	5.43429
16.33946	-3.58127	5.43429
16.34364	-3.53732	5.43429
16.34783	-3.49338	5.43429
16.35209	-3.44943	5.43429
16.35637	-3.44943	5.43429
16.36057	-3.40548	5.43429
16.36475	-3.36154	5.43429
16.36894	-3.33957	5.43429
16.37312	-3.29562	5.43429
16.37731	-3.25168	5.43429
16.38149	-3.22970	5.43429
16.38579	-3.22970	5.43429
16.38999	-3.16379	5.43429
16.39418	-3.14181	5.43429
16.39837	-3.09787	5.43429
16.40255	-3.05392	5.43429
16.40674	-3.03195	5.43429
16.41095	-2.98800	5.43429
16.41539	-2.98800	5.43429
16.41972	-2.96603	5.43429
16.42391	-2.92209	5.43429
16.42810	-2.90011	5.43429
16.43228	-2.87814	5.43429
16.43647	-2.83420	5.43429
16.44065	-2.83420	5.43429
16.44493	-2.81222	5.43429
16.44918	-2.76828	5.43429
16.45338	-2.74631	5.43429
16.45757	-2.70236	5.43429
16.46175	-2.70236	5.43429
16.46594	-2.68039	5.43429
16.47012	-2.65841	5.43429
16.47439	-2.63644	5.43429
16.47867	-2.59250	5.43429
16.48286	-2.57052	5.43429
16.48705	-2.57052	5.43429
16.49124	-2.54855	5.43429
16.49543	-2.52658	5.43429
16.49962	-2.50461	5.43429
16.50380	-2.48263	5.43429
16.50810	-2.46066	5.43429
16.51230	-2.43869	5.43429
16.51649	-2.43869	5.43429
16.52079	-2.41672	5.43429
16.52497	-2.39474	5.43429
16.52916	-2.37277	5.43429
16.53334	-2.35080	5.43429
16.53775	-2.32882	5.43429
16.54195	-2.30685	5.43429
16.54614	-2.30685	5.43429
16.55034	-2.28488	5.43429
16.55452	-2.28488	5.43429
16.55871	-2.26291	5.43429
16.56289	-2.24093	5.43429
16.56717	-2.24093	5.43429
16.57142	-2.24093	5.43429
16.57561	-2.21896	5.43429
16.57980	-2.19699	5.43429
16.58400	-2.19699	5.43429
16.58819	-2.17502	5.43429
16.59238	-2.17502	5.43429
16.59665	-2.17502	5.43429
16.60093	-2.17502	5.43429
16.60513	-2.15304	5.43429
16.60931	-2.15304	5.43429
16.61350	-2.13107	5.43429
16.61768	-2.13107	5.43429
16.62197	-2.10910	5.43429
16.62615	-2.10910	5.43429
16.63047	-2.10910	5.43429
16.63467	-2.10910	5.43429
16.63886	-2.10910	5.43429
16.64305	-2.10910	5.43429
16.64723	-2.10910	5.43429
16.65142	-2.10910	5.43429
16.65560	-2.10910	5.43429
16.66000	-2.10910	5.43429
16.66420	-2.10910	5.43429
16.66838	-2.10910	5.43429
16.67257	-2.10910	5.43429
16.67675	-2.10910	5.43429
16.68094	-2.10910	5.43429
16.68512	-2.10910	5.43429
16.68940	-2.13107	5.43429
16.69364	-2.13107	5.43429
16.69783	-2.13107	5.43429
16.70202	-2.13107	5.43429
16.70620	-2.15304	5.43429
16.71039	-2.15304	5.43429
16.71458	-2.15304	5.43429
16.71882	-2.17502	5.43429
16.72320	-2.17502	5.43429
16.72740	-2.17502	5.43429
16.73158	-2.19699	5.43429
16.73576	-2.19699	5.43429
16.73995	-2.21896	5.43429
16.74413	-2.24093	5.43429
16.74831	-2.24093	5.43429
16.75260	-2.24093	5.43429
16.75681	-2.26291	5.43429
16.76099	-2.28488	5.43429
16.76517	-2.30685	5.43429
16.76936	-2.30685	5.43429
16.77354	-2.32882	5.43429
16.77772	-2.32882	5.43429
16.78217	-2.35080	5.43429
16.78640	-2.37277	5.43429
16.79059	-2.39474	5.43429
16.79477	-2.39474	5.43429
16.79895	-2.41672	5.43429
16.80314	-2.43869	5.43429
16.80732	-2.43869	5.43429
16.81160	-2.48263	5.43429
16.81586	-2.50461	5.43429
16.82006	-2.52658	5.43429
16.82435	-2.54855	5.43429
16.82853	-2.59250	5.43429
16.83272	-2.59250	5.43429
16.83690	-2.61447	5.43429
16.84116	-2.61447	5.43429
16.84542	-2.65841	5.43429
16.84962	-2.68039	5.43429
16.85381	-2.72433	5.43429
16.85800	-2.72433	5.43429
16.86218	-2.74631	5.43429
16.86637	-2.76828	5.43429
16.87056	-2.81222	5.43429
16.87485	-2.83420	5.43429
16.87905	-2.85617	5.43429
16.88324	-2.87814	5.43429
16.88742	-2.87814	5.43429
16.89160	-2.92209	5.43429
16.89579	-2.96603	5.43429
16.89997	-2.98800	5.43429
16.90434	-3.03195	5.43429
16.90856	-3.05392	5.43429
16.91274	-3.05392	5.43429
16.91693	-3.09787	5.43429
16.92111	-3.11984	5.43429
16.92540	-3.16379	5.43429
16.92958	-3.18576	5.43429
16.93386	-3.22970	5.43429
16.93811	-3.27365	5.43429
16.94231	-3.27365	5.43429
16.94650	-3.31759	5.43429
16.95068	-3.33957	5.43429
16.95487	-3.38351	5.43429
16.95906	-3.42746	5.43429
16.96331	-3.42746	5.43429
16.96757	-3.47140	5.43429
16.97177	-3.51535	5.43429
16.97595	-3.55929	5.43429
16.98014	-3.60324	5.43429
16.98432	-3.62521	5.43429
16.98851	-3.62521	5.43429
16.99269	-3.69113	5.43429
16.99698	-3.73507	5.43429
17.00119	-3.75705	5.43429
17.00538	-3.82297	5.43429
17.00957	-3.86691	5.43429
17.01375	-3.86691	5.43429
17.01795	-3.91086	5.43429
17.02213	-3.95480	5.43429
17.02661	-3.99875	5.43429
17.03082	-4.04269	5.43429
17.03502	-4.08664	5.43429
17.03920	-4.08664	5.43429
17.04339	-4.13058	5.43429
17.04757	-4.19650	5.43429
17.05176	-4.21847	5.43429
17.05603	-4.26242	5.43429
17.06027	-4.32834	5.43429
17.06447	-4.37228	5.43429
17.06866	-4.37228	5.43429
17.07284	-4.43820	5.43429
17.07703	-4.48214	5.43429
17.08121	-4.52609	5.43429
17.08545	-4.59201	5.43429
17.08972	-4.63595	5.43429
17.09392	-4.67990	5.43429
17.09811	-4.67990	5.43429
17.10231	-4.72384	5.43429
17.10649	-4.78976	5.43429
17.11068	-4.83371	5.43429
17.11486	-4.89963	5.43429
17.11914	-4.89963	5.43429
17.12335	-4.94357	5.43429
17.12764	-5.00949	5.43429
17.13182	-5.05343	5.43429
17.13601	-5.11935	5.43429
17.14020	-5.16330	5.43429
17.14440	-5.22922	5.43429
17.14883	-5.22922	5.43429
17.15305	-5.27316	5.43429
17.15725	-5.33908	5.43429
17.16144	-5.40500	5.43429
17.16562	-5.44894	5.43429
17.16981	-5.51486	5.43429
17.17399	-5.51486	5.43429
17.17827	-5.55881	5.43429
17.18252	-5.62472	5.43429
17.18672	-5.66867	5.43429
17.19091	-5.73459	5.43429
17.19509	-5.80050	5.43429
17.19927	-5.86642	5.43429
17.20346	-5.86642	5.43429
17.20771	-5.91037	5.43429
17.21197	-5.97629	5.43429
17.21617	-6.04220	5.43429
17.22036	-6.10812	5.43429
17.22455	-6.10812	5.43429
17.22884	-6.17404	5.43429
17.23303	-6.21798	5.43429
17.23722	-6.28390	5.43429
17.24151	-6.34982	5.43429
17.24572	-6.41574	5.43429
17.24991	-6.41574	5.43429
17.25410	-6.45968	5.43429
17.25830	-6.52560	5.43429
17.26249	-6.59152	5.43429
17.26667	-6.63547	5.43429
17.27105	-6.72336	5.43429
17.27526	-6.76730	5.43429
17.27945	-6.76730	5.43429
17.28364	-6.83322	5.43429
17.28782	-6.87716	5.43429
17.29201	-6.94308	5.43429
17.29619	-7.03097	5.43429
17.30048	-7.03097	5.43429
17.30473	-7.11886	5.43429
17.30893	-7.11886	5.43429
17.31312	-7.20675	5.43429
17.31731	-7.25070	5.43429
17.32150	-7.31662	5.43429
17.32569	-7.38254	5.43429
17.33008	-7.38254	5.43429
17.33435	-7.44845	5.43429
17.33856	-7.51437	5.43429
17.34275	-7.58029	5.43429
17.34693	-7.64621	5.43429
17.35112	-7.69015	5.43429
17.35530	-7.75607	5.43429
17.35949	-7.75607	5.43429
17.36378	-7.82199	5.43429
17.36799	-7.86593	5.43429
17.37219	-7.93185	5.43429
17.37640	-7.99777	5.43429
17.38059	-8.06369	5.43429
17.38478	-8.06369	5.43429
17.38896	-8.12961	5.43429
17.39340	-8.17355	5.43429
17.39762	-8.23947	5.43429
17.40181	-8.30539	5.43429
17.40600	-8.34933	5.43429
17.41022	-8.41525	5.43429
17.41441	-8.41525	5.43429
17.41861	-8.48117	5.43429
17.42289	-8.54709	5.43429
17.42714	-8.59103	5.43429
17.43144	-8.65695	5.43429
17.43564	-8.70089	5.43429
17.43983	-8.70089	5.43429
17.44401	-8.76681	5.43429
17.44820	-8.83273	5.43429
17.45246	-8.87668	5.43429
17.45673	-8.96457	5.43429
17.46093	-9.00851	5.43429
17.46511	-9.00851	5.43429
17.46930	-9.07443	5.43429
17.47349	-9.11838	5.43429
17.47768	-9.18429	5.43429
17.48186	-9.22824	5.43429
17.48615	-9.29416	5.43429
17.49037	-9.29416	5.43429
17.49455	-9.36007	5.43429
17.49874	-9.40402	5.43429
17.50293	-9.46994	5.43429
17.50711	-9.51388	5.43429
17.51130	-9.51388	5.43429
17.51567	-9.57980	5.43429
17.51990	-9.64572	5.43429
17.52409	-9.68966	5.43429
17.52827	-9.73361	5.43429
17.53257	-9.77756	5.43429
17.53675	-9.84347	5.43429
17.54094	-9.84347	5.43429
17.54521	-9.88742	5.43429
17.54946	-9.95334	5.43429
17.55366	-9.99728	5.43429
17.55784	-10.06320	5.43429
17.56203	-10.08517	5.43429
17.56621	-10.15109	5.43429
17.57040	-10.15109	5.43429
17.57466	-10.19504	5.43429
17.57892	-10.26095	5.43429
17.58312	-10.30490	5.43429
17.58731	-10.34884	5.43429
17.59150	-10.39279	5.43429
17.59568	-10.39279	5.43429
17.59986	-10.43673	5.43429
17.60405	-10.48068	5.43429
17.60833	-10.54660	5.43429
17.61254	-10.56857	5.43429
17.61673	-10.63449	5.43429
17.62092	-10.63449	5.43429
17.62511	-10.67843	5.43429
17.62929	-10.72238	5.43429
17.63358	-10.76632	5.43429
17.63796	-10.81027	5.43429
17.64217	-10.85422	5.43429
17.64637	-10.87619	5.43429
17.65056	-10.87619	5.43429
17.65474	-10.92013	5.43429
17.65894	-10.96408	5.43429
17.66312	-11.00802	5.43429
17.66740	-11.05197	5.43429
17.67165	-11.09591	5.43429
17.67585	-11.09591	5.43429
17.68003	-11.13986	5.43429
17.68422	-11.18381	5.43429
17.68841	-11.20578	5.43429
17.69259	-11.22775	5.43429
17.69684	-11.27170	5.43429
17.70110	-11.31564	5.43429
17.70530	-11.31564	5.43429
17.70949	-11.33761	5.43429
17.71368	-11.38156	5.43429
17.71786	-11.40353	5.43429
17.72205	-11.44748	5.43429
17.72624	-11.44748	5.43429
17.73051	-11.49142	5.43429
17.73483	-11.51339	5.43429
17.73902	-11.53537	5.43429
17.74320	-11.57931	5.43429
17.74739	-11.60129	5.43429
17.75157	-11.60129	5.43429
17.75576	-11.62326	5.43429
17.76013	-11.66720	5.43429
17.76434	-11.68918	5.43429
17.76853	-11.71115	5.43429
17.77272	-11.73312	5.43429
17.77690	-11.77707	5.43429
17.78108	-11.77707	5.43429
17.78527	-11.77707	5.43429
17.78955	-11.82101	5.43429
17.79380	-11.84298	5.43429
17.79800	-11.86496	5.43429
17.80219	-11.86496	5.43429
17.80639	-11.88693	5.43429
17.81057	-11.90890	5.43429
17.81476	-11.93088	5.43429
17.81903	-11.95285	5.43429
17.82330	-11.97482	5.43429
17.82750	-11.99679	5.43429
17.83169	-11.99679	5.43429
17.83599	-12.01877	5.43429
17.84017	-12.04074	5.43429
17.84436	-12.04074	5.43429
17.84854	-12.06271	5.43429
17.85283	-12.08468	5.43429
17.85704	-12.08468	5.43429
17.86123	-12.10666	5.43429
17.86541	-12.10666	5.43429
17.86960	-12.12863	5.43429
17.87379	-12.12863	5.43429
17.87797	-12.15060	5.43429
17.88237	-12.15060	5.43429
17.88659	-12.15060	5.43429
17.89078	-12.17257	5.43429
17.89497	-12.17257	5.43429
17.89915	-12.19455	5.43429
17.90334	-12.19455	5.43429
17.90752	-12.21652	5.43429
17.91180	-12.21652	5.43429
17.91605	-12.21652	5.43429
17.92025	-12.23849	5.43429
17.92444	-12.23849	5.43429
17.92863	-12.23849	5.43429
17.93282	-12.26047	5.43429
17.93711	-12.26047	5.43429
17.94136	-12.26047	5.43429
17.94562	-12.26047	5.43429
17.94983	-12.26047	5.43429
17.95402	-12.26047	5.43429
17.95820	-12.26047	5.43429
17.96239	-12.26047	5.43429
17.96658	-12.26047	5.43429
17.97076	-12.28244	5.43429
17.97505	-12.28244	5.43429
17.97925	-12.26047	5.43429
17.98344	-12.28244	5.43429
17.98765	-12.28244	5.43429
17.99184	-12.26047	5.43429
17.99603	-12.28244	5.43429
18.00022	-12.26047	5.43429
18.00461	-12.26047	5.43429
18.00883	-12.26047	5.43429
18.01301	-12.26047	5.43429
18.01720	-12.26047	5.43429
18.02139	-12.26047	5.43429
18.02557	-12.23849	5.43429
18.02976	-12.23849	5.43429
18.03404	-12.23849	5.43429
18.03840	-12.23849	5.43429
18.04260	-12.23849	5.43429
18.04678	-12.21652	5.43429
18.05097	-12.21652	5.43429
18.05515	-12.19455	5.43429
18.05934	-12.19455	5.43429
18.06359	-12.17257	5.43429
18.06784	-12.17257	5.43429
18.07204	-12.17257	5.43429
18.07623	-12.15060	5.43429
18.08041	-12.15060	5.43429
18.08460	-12.12863	5.43429
18.08878	-12.12863	5.43429
18.09297	-12.12863	5.43429
18.09725	-12.10666	5.43429
18.10146	-12.10666	5.43429
18.10565	-12.08468	5.43429
18.10983	-12.06271	5.43429
18.11402	-12.04074	5.43429
18.11820	-12.04074	5.43429
18.12239	-12.04074	5.43429
18.12675	-12.01877	5.43429
18.13097	-11.99679	5.43429
18.13516	-11.99679	5.43429
18.13945	-11.97482	5.43429
18.14363	-11.95285	5.43429
18.14782	-11.95285	5.43429
18.15200	-11.93088	5.43429
18.15628	-11.90890	5.43429
18.16053	-11.90890	5.43429
18.16472	-11.88693	5.43429
18.16891	-11.86496	5.43429
18.17309	-11.84298	5.43429
18.17728	-11.84298	5.43429
18.18146	-11.82101	5.43429
18.18571	-11.79904	5.43429
18.18997	-11.77707	5.43429
18.19418	-11.75509	5.43429
18.19837	-11.75509	5.43429
18.20256	-11.73312	5.43429
18.20675	-11.71115	5.43429
18.21094	-11.68918	5.43429
18.21512	-11.66720	5.43429
18.21941	-11.64523	5.43429
18.22361	-11.62326	5.43429
18.22781	-11.62326	5.43429
18.23200	-11.60129	5.43429
18.23619	-11.57931	5.43429
18.24048	-11.55734	5.43429
18.24468	-11.53537	5.43429
18.24912	-11.51339	5.43429
18.25334	-11.51339	5.43429
18.25753	-11.46945	5.43429
18.26171	-11.46945	5.43429
18.26591	-11.42550	5.43429
18.27010	-11.40353	5.43429
18.27429	-11.40353	5.43429
18.27857	-11.38156	5.43429
18.28282	-11.35959	5.43429
18.28702	-11.31564	5.43429
18.29121	-11.29367	5.43429
18.29539	-11.27170	5.43429
18.29958	-11.24972	5.43429
18.30377	-11.24972	5.43429
18.30802	-11.22775	5.43429
18.31229	-11.18381	5.43429
18.31650	-11.16183	5.43429
18.32069	-11.13986	5.43429
18.32488	-11.09591	5.43429
18.32907	-11.09591	5.43429
18.33326	-11.09591	5.43429
18.33744	-11.05197	5.43429
18.34184	-11.03000	5.43429
18.34605	-10.98605	5.43429
18.35024	-10.96408	5.43429
18.35440	-10.92013	5.43429
18.35859	-10.92013	5.43429
18.36278	-10.89816	5.43429
18.36696	-10.87619	5.43429
18.37136	-10.83224	5.43429
18.37557	-10.81027	5.43429
18.37976	-10.78830	5.43429
18.38396	-10.78830	5.43429
18.38816	-10.74435	5.43429
18.39234	-10.72238	5.43429
18.39653	-10.70041	5.43429
18.40077	-10.65646	5.43429
18.40501	-10.63449	5.43429
18.40935	-10.63449	5.43429
18.41354	-10.59054	5.43429
18.41773	-10.56857	5.43429
18.42192	-10.54660	5.43429
18.42610	-10.50265	5.43429
18.43036	-10.45871	5.43429
18.43459	-10.43673	5.43429
18.43877	-10.43673	5.43429
18.44302	-10.39279	5.43429
18.44719	-10.37082	5.43429
18.45135	-10.34884	5.43429
18.45551	-10.30490	5.43429
18.45968	-10.28293	5.43429
18.46392	-10.23898	5.43429
18.46811	-10.23898	5.43429
18.47227	-10.21701	5.43429
18.47644	-10.17306	5.43429
18.48060	-10.15109	5.43429
18.48476	-10.10714	5.43429
18.48893	-10.10714	5.43429
18.49325	-10.06320	5.43429
18.49743	-10.04123	5.43429
18.50160	-9.99728	5.43429
18.50577	-9.97531	5.43429
18.50993	-9.97531	5.43429
18.51409	-9.93136	5.43429
18.51826	-9.90939	5.43429
18.52244	-9.86545	5.43429
18.52667	-9.84347	5.43429
18.53088	-9.79953	5.43429
18.53507	-9.79953	5.43429
18.53926	-9.75558	5.43429
18.54355	-9.73361	5.43429
18.54773	-9.71164	5.43429
18.55192	-9.66769	5.43429
18.55620	-9.64572	5.43429
18.56040	-9.60177	5.43429
18.56459	-9.60177	5.43429
18.56877	-9.55783	5.43429
18.57296	-9.53586	5.43429
18.57714	-9.49191	5.43429
18.58133	-9.46994	5.43429
18.58568	-9.44797	5.43429
18.58990	-9.40402	5.43429
18.59408	-9.40402	5.43429
18.59828	-9.36007	5.43429
18.60247	-9.33810	5.43429
18.60665	-9.29416	5.43429
18.61084	-9.27218	5.43429
18.61510	-9.27218	5.43429
18.61940	-9.22824	5.43429
18.62360	-9.18429	5.43429
18.62779	-9.16232	5.43429
18.63198	-9.14035	5.43429
18.63616	-9.09640	5.43429
18.64035	-9.07443	5.43429
18.64473	-9.07443	5.43429
18.64900	-9.03048	5.43429
18.65320	-9.00851	5.43429
18.65739	-8.96457	5.43429
18.66158	-8.92062	5.43429
18.66576	-8.89865	5.43429
18.66995	-8.87668	5.43429
18.67413	-8.87668	5.43429
18.67844	-8.83273	5.43429
18.68264	-8.81076	5.43429
18.68683	-8.76681	5.43429
18.69101	-8.74484	5.43429
18.69520	-8.74484	5.43429
18.69938	-8.70089	5.43429
18.70356	-8.67892	5.43429
18.70798	-8.63498	5.43429
18.71217	-8.61300	5.43429
18.71636	-8.56906	5.43429
18.72055	-8.54709	5.43429
18.72473	-8.54709	5.43429
18.72892	-8.52511	5.43429
18.73310	-8.48117	5.43429
18.73736	-8.43722	5.43429
18.74161	-8.41525	5.43429
18.74591	-8.39328	5.43429
18.75010	-8.39328	5.43429
18.75428	-8.34933	5.43429
18.75847	-8.32736	5.43429
18.76265	-8.28341	5.43429
18.76690	-8.26144	5.43429
18.77117	-8.23947	5.43429
18.77537	-8.23947	5.43429
18.77955	-8.21750	5.43429
18.78376	-8.17355	5.43429
18.78795	-8.15158	5.43429
18.79214	-8.10763	5.43429
18.79632	-8.10763	5.43429
18.80062	-8.08566	5.43429
18.80482	-8.06369	5.43429
18.80901	-8.04172	5.43429
18.81319	-7.99777	5.43429
18.81738	-7.97580	5.43429
18.82157	-7.93185	5.43429
18.82575	-7.93185	5.43429
18.83014	-7.90988	5.43429
18.83436	-7.88791	5.43429
18.83855	-7.86593	5.43429
18.84274	-7.84396	5.43429
18.84702	-7.80002	5.43429
18.85121	-7.77804	5.43429
18.85539	-7.77804	5.43429
18.85967	-7.75607	5.43429
18.86392	-7.73410	5.43429
18.86812	-7.69015	5.43429
18.87230	-7.66818	5.43429
18.87649	-7.66818	5.43429
18.88067	-7.62423	5.43429
18.88486	-7.60226	5.43429
18.88911	-7.58029	5.43429
18.89339	-7.55832	5.43429
18.89758	-7.53634	5.43429
18.90177	-7.51437	5.43429
18.90596	-7.51437	5.43429
18.91014	-7.49240	5.43429
18.91433	-7.44845	5.43429
18.91852	-7.42648	5.43429
18.92282	-7.40451	5.43429
18.92701	-7.38254	5.43429
18.93120	-7.36056	5.43429
18.93539	-7.36056	5.43429
18.93958	-7.33859	5.43429
18.94377	-7.31662	5.43429
18.94805	-7.29464	5.43429
18.95246	-7.27267	5.43429
18.95667	-7.25070	5.43429
18.96085	-7.25070	5.43429
18.96504	-7.20675	5.43429
18.96923	-7.18478	5.43429
18.97341	-7.18478	5.43429
18.97759	-7.16281	5.43429
18.98187	-7.11886	5.43429
18.98613	-7.11886	5.43429
18.99033	-7.09689	5.43429
18.99451	-7.07492	5.43429
18.99870	-7.05295	5.43429
19.00288	-7.03097	5.43429
19.00706	-7.00900	5.43429
19.01132	-7.00900	5.43429
19.01560	-6.98703	5.43429
19.01979	-6.96506	5.43429
19.02398	-6.94308	5.43429
19.02816	-6.92111	5.43429
19.03235	-6.89914	5.43429
19.03653	-6.89914	5.43429
19.04072	-6.87716	5.43429
19.04502	-6.85519	5.43429
19.04932	-6.83322	5.43429
19.05351	-6.81125	5.43429
19.05770	-6.81125	5.43429
19.06188	-6.81125	5.43429
19.06606	-6.78927	5.43429
19.07025	-6.76730	5.43429
19.07461	-6.72336	5.43429
19.07881	-6.72336	5.43429
19.08299	-6.70138	5.43429
19.08718	-6.70138	5.43429
19.09137	-6.70138	5.43429
19.09560	-6.65744	5.43429
19.09979	-6.65744	5.43429
19.10405	-6.63547	5.43429
19.10832	-6.61349	5.43429
19.11251	-6.59152	5.43429
19.11670	-6.59152	5.43429
19.12089	-6.59152	5.43429
19.12508	-6.56955	5.43429
19.12926	-6.56955	5.43429
19.13354	-6.52560	5.43429
19.13782	-6.52560	5.43429
19.14202	-6.50363	5.43429
19.14621	-6.50363	5.43429
19.15051	-6.48166	5.43429
19.15469	-6.48166	5.43429
19.15888	-6.45968	5.43429
19.16306	-6.43771	5.43429
19.16736	-6.43771	5.43429
19.17156	-6.41574	5.43429
19.17574	-6.41574	5.43429
19.17993	-6.39377	5.43429
19.18412	-6.39377	5.43429
19.18830	-6.39377	5.43429
19.19248	-6.37179	5.43429
19.19687	-6.37179	5.43429
19.20108	-6.34982	5.43429
19.20527	-6.34982	5.43429
19.20945	-6.34982	5.43429
19.21364	-6.32785	5.43429
19.21782	-6.30588	5.43429
19.22201	-6.30588	5.43429
19.22629	-6.30588	5.43429
19.23056	-6.30588	5.43429
19.23476	-6.28390	5.43429
19.23895	-6.28390	5.43429
19.24314	-6.26193	5.43429
19.24732	-6.26193	5.43429
19.25161	-6.26193	5.43429
19.25588	-6.23996	5.43429
19.26016	-6.23996	5.43429
19.26436	-6.23996	5.43429
19.26855	-6.21798	5.43429
19.27274	-6.21798	5.43429
19.27692	-6.21798	5.43429
19.28111	-6.21798	5.43429
19.28529	-6.19601	5.43429
19.28958	-6.19601	5.43429
19.29378	-6.19601	5.43429
19.29797	-6.19601	5.43429
19.30215	-6.19601	5.43429
19.30635	-6.19601	5.43429
19.31054	-6.19601	5.43429
19.31473	-6.19601	5.43429
19.31916	-6.17404	5.43429
19.32336	-6.17404	5.43429
19.32755	-6.17404	5.43429
19.33174	-6.17404	5.43429
19.33593	-6.17404	5.43429
19.34012	-6.17404	5.43429
19.34431	-6.17404	5.43429
19.34858	-6.17404	5.43429
19.35295	-6.17404	5.43429
19.35714	-6.17404	5.43429
19.36133	-6.17404	5.43429
19.36551	-6.17404	5.43429
19.36970	-6.17404	5.43429
19.37388	-6.17404	5.43429
19.37815	-6.17404	5.43429
19.38244	-6.17404	5.43429
19.38663	-6.19601	5.43429
19.39082	-6.17404	5.43429
19.39500	-6.19601	5.43429
19.39919	-6.19601	5.43429
19.40337	-6.19601	5.43429
19.40755	-6.19601	5.43429
19.41190	-6.21798	5.43429
19.41611	-6.19601	5.43429
19.42030	-6.19601	5.43429
19.42449	-6.21798	5.43429
19.42868	-6.21798	5.43429
19.43286	-6.21798	5.43429
19.43705	-6.21798	5.43429
19.44146	-6.23996	5.43429
19.44567	-6.23996	5.43429
19.44986	-6.23996	5.43429
19.45416	-6.23996	5.43429
19.45835	-6.26193	5.43429
19.46254	-6.26193	5.43429
19.46672	-6.26193	5.43429
19.47100	-6.28390	5.43429
19.47525	-6.28390	5.43429
19.47944	-6.28390	5.43429
19.48363	-6.30588	5.43429
19.48782	-6.30588	5.43429
19.49200	-6.30588	5.43429
19.49619	-6.32785	5.43429
19.50045	-6.32785	5.43429
19.50473	-6.34982	5.43429
19.50893	-6.34982	5.43429
19.51311	-6.34982	5.43429
19.51730	-6.37179	5.43429
19.52149	-6.37179	5.43429
19.52567	-6.39377	5.43429
19.52986	-6.39377	5.43429
19.53415	-6.39377	5.43429
19.53837	-6.39377	5.43429
19.54256	-6.41574	5.43429
19.54674	-6.43771	5.43429
19.55093	-6.43771	5.43429
19.55521	-6.45968	5.43429
19.55940	-6.45968	5.43429
19.56380	-6.45968	5.43429
19.56801	-6.45968	5.43429
19.57220	-6.50363	5.43429
19.57638	-6.50363	5.43429
19.58057	-6.50363	5.43429
19.58475	-6.52560	5.43429
19.58893	-6.52560	5.43429
19.59322	-6.54757	5.43429
19.59748	-6.54757	5.43429
19.60168	-6.56955	5.43429
19.60586	-6.59152	5.43429
19.61005	-6.59152	5.43429
19.61423	-6.61349	5.43429
19.61840	-6.61349	5.43429
19.62266	-6.61349	5.43429
19.62694	-6.63547	5.43429
19.63113	-6.65744	5.43429
19.63532	-6.67941	5.43429
19.63951	-6.67941	5.43429
19.64369	-6.67941	5.43429
19.64788	-6.70138	5.43429
19.65206	-6.72336	5.43429
19.65646	-6.72336	5.43429
19.66065	-6.74533	5.43429
19.66484	-6.74533	5.43429
19.66903	-6.74533	5.43429
19.67321	-6.76730	5.43429
19.67740	-6.78927	5.43429
19.68158	-6.81125	5.43429
19.68598	-6.81125	5.43429
19.69018	-6.83322	5.43429
19.69438	-6.83322	5.43429
19.69856	-6.83322	5.43429
19.70275	-6.85519	5.43429
19.70694	-6.87716	5.43429
19.71112	-6.89914	5.43429
19.71540	-6.89914	5.43429
19.71965	-6.92111	5.43429
19.72384	-6.92111	5.43429
19.72802	-6.94308	5.43429
19.73221	-6.96506	5.43429
19.73639	-6.98703	5.43429
19.74058	-6.98703	5.43429
19.74484	-7.00900	5.43429
19.74911	-7.00900	5.43429
19.75330	-7.00900	5.43429
19.75759	-7.03097	5.43429
19.76178	-7.05295	5.43429
19.76596	-7.07492	5.43429
19.77014	-7.09689	5.43429
19.77434	-7.09689	5.43429
19.77863	-7.11886	5.43429
19.78284	-7.11886	5.43429
19.78702	-7.14084	5.43429
19.79121	-7.16281	5.43429
19.79539	-7.18478	5.43429
19.79958	-7.18478	5.43429
19.80376	-7.20675	5.43429
19.80817	-7.22873	5.43429
19.81238	-7.25070	5.43429
19.81656	-7.25070	5.43429
19.82075	-7.25070	5.43429
19.82493	-7.29464	5.43429
19.82912	-7.29464	5.43429
19.83330	-7.31662	5.43429
19.83759	-7.33859	5.43429
19.84184	-7.36056	5.43429
19.84603	-7.38254	5.43429
19.85021	-7.38254	5.43429
19.85440	-7.40451	5.43429
19.85869	-7.42648	5.43429
19.86287	-7.44845	5.43429
19.86713	-7.44845	5.43429
19.87140	-7.47043	5.43429
19.87559	-7.49240	5.43429
19.87978	-7.49240	5.43429
19.88396	-7.51437	5.43429
19.88816	-7.53634	5.43429
19.89234	-7.55832	5.43429
19.89653	-7.58029	5.43429
19.90082	-7.60226	5.43429
19.90503	-7.60226	5.43429
19.90922	-7.62423	5.43429
19.91340	-7.64621	5.43429
19.91759	-7.66818	5.43429
19.92177	-7.69015	5.43429
19.92596	-7.71213	5.43429
19.93038	-7.73410	5.43429
19.93460	-7.73410	5.43429
19.93878	-7.75607	5.43429
19.94297	-7.77804	5.43429
19.94716	-7.80002	5.43429
19.95134	-7.82199	5.43429
19.95552	-7.84396	5.43429
19.95992	-7.84396	5.43429
19.96417	-7.86593	5.43429
19.96836	-7.88791	5.43429
19.97255	-7.90988	5.43429
19.97674	-7.93185	5.43429
19.98092	-7.95382	5.43429
19.98511	-7.95382	5.43429
19.98937	-7.97580	5.43429
19.99364	-7.99777	5.43429
19.99784	-8.01974	5.43429
20.00204	-8.04172	5.43429
20.00622	-8.06369	5.43429
20.01040	-8.10763	5.43429
20.01458	-8.10763	5.43429
20.01877	-8.10763	5.43429
20.02306	-8.15158	5.43429
20.02726	-8.17355	5.43429
20.03145	-8.19552	5.43429
20.03564	-8.19552	5.43429
20.03983	-8.21750	5.43429
20.04401	-8.23947	5.43429
20.04819	-8.26144	5.43429
20.05259	-8.28341	5.43429
20.05679	-8.30539	5.43429
20.06108	-8.30539	5.43429
20.06526	-8.34933	5.43429
20.06945	-8.37131	5.43429
20.07364	-8.39328	5.43429
20.07782	-8.41525	5.43429
20.08210	-8.43722	5.43429
20.08637	-8.45920	5.43429
20.09056	-8.45920	5.43429
20.09475	-8.48117	5.43429
20.09893	-8.50314	5.43429
20.10312	-8.52511	5.43429
20.10731	-8.54709	5.43429
20.11156	-8.54709	5.43429
20.11583	-8.59103	5.43429
20.12003	-8.61300	5.43429
20.12421	-8.63498	5.43429
20.12840	-8.65695	5.43429
20.13258	-8.67892	5.43429
20.13677	-8.70089	5.43429
20.14095	-8.70089	5.43429
20.14525	-8.72287	5.43429
20.14946	-8.74484	5.43429
20.15365	-8.78879	5.43429
20.15783	-8.81076	5.43429
20.16212	-8.83273	5.43429
20.16631	-8.85470	5.43429
20.17049	-8.85470	5.43429
20.17488	-8.87668	5.43429
20.17908	-8.89865	5.43429
20.18327	-8.92062	5.43429
20.18746	-8.94259	5.43429
20.19164	-8.96457	5.43429
20.19583	-8.96457	5.43429
20.20001	-8.98654	5.43429
20.20428	-9.00851	5.43429
20.20854	-9.03048	5.43429
20.21273	-9.05246	5.43429
20.21691	-9.07443	5.43429
20.22112	-9.07443	5.43429
20.22533	-9.09640	5.43429
20.22953	-9.14035	5.43429
20.23384	-9.14035	5.43429
20.23813	-9.18429	5.43429
20.24234	-9.20627	5.43429
20.24653	-9.20627	5.43429
20.25071	-9.22824	5.43429
20.25490	-9.25021	5.43429
20.25909	-9.27218	5.43429
20.26338	-9.29416	5.43429
20.26767	-9.31613	5.43429
20.27187	-9.31613	5.43429
20.27606	-9.31613	5.43429
20.28024	-9.36007	5.43429
20.28443	-9.38205	5.43429
20.28861	-9.38205	5.43429
20.29280	-9.42599	5.43429
20.29718	-9.42599	5.43429
20.30139	-9.42599	5.43429
20.30558	-9.46994	5.43429
20.30978	-9.46994	5.43429
20.31397	-9.51388	5.43429
20.31816	-9.53586	5.43429
20.32235	-9.53586	5.43429
20.32663	-9.55783	5.43429
20.33089	-9.57980	5.43429
20.33509	-9.57980	5.43429
20.33928	-9.60177	5.43429
20.34347	-9.62375	5.43429
20.34765	-9.64572	5.43429
20.35184	-9.64572	5.43429
20.35610	-9.66769	5.43429
20.36038	-9.68966	5.43429
20.36468	-9.71164	5.43429
20.36887	-9.73361	5.43429
20.37306	-9.73361	5.43429
20.37724	-9.75558	5.43429
20.38142	-9.75558	5.43429
20.38561	-9.77756	5.43429
20.38990	-9.79953	5.43429
20.39410	-9.82150	5.43429
20.39830	-9.84347	5.43429
20.40249	-9.86545	5.43429
20.40667	-9.86545	5.43429
20.41089	-9.86545	5.43429
20.41508	-9.88742	5.43429
20.41950	-9.90939	5.43429
20.42371	-9.93136	5.43429
20.42789	-9.95334	5.43429
20.43208	-9.95334	5.43429
20.43627	-9.95334	5.43429
20.44045	-9.97531	5.43429
20.44464	-9.99728	5.43429
20.44892	-10.01925	5.43429
20.45317	-10.01925	5.43429
20.45736	-10.01925	5.43429
20.46155	-10.04123	5.43429
20.46584	-10.06320	5.43429
20.47003	-10.06320	5.43429
20.47421	-10.08517	5.43429
20.47847	-10.10714	5.43429
20.48274	-10.12912	5.43429
20.48694	-10.12912	5.43429
20.49113	-10.12912	5.43429
20.49531	-10.15109	5.43429
20.49950	-10.17306	5.43429
20.50368	-10.17306	5.43429
20.50787	-10.19504	5.43429
20.51216	-10.21701	5.43429
20.51636	-10.21701	5.43429
20.52055	-10.21701	5.43429
20.52474	-10.23898	5.43429
20.52892	-10.23898	5.43429
20.53311	-10.26095	5.43429
20.53729	-10.26095	5.43429
20.54168	-10.28293	5.43429
20.54588	-10.30490	5.43429
20.55007	-10.30490	5.43429
20.55426	-10.32687	5.43429
20.55840	-10.34884	5.43429
20.56258	-10.34884	5.43429
20.56687	-10.34884	5.43429
20.57114	-10.37082	5.43429
20.57539	-10.37082	5.43429
20.57958	-10.39279	5.43429
20.58376	-10.39279	5.43429
20.58795	-10.39279	5.43429
20.59213	-10.41476	5.43429
20.59632	-10.41476	5.43429
20.60056	-10.43673	5.43429
20.60484	-10.43673	5.43429
20.60903	-10.45871	5.43429
20.61322	-10.45871	5.43429
20.61740	-10.45871	5.43429
20.62159	-10.48068	5.43429
20.62577	-10.48068	5.43429
20.62996	-10.48068	5.43429
20.63424	-10.50265	5.43429
20.63842	-10.52463	5.43429
20.64260	-10.52463	5.43429
20.64679	-10.52463	5.43429
20.65097	-10.54660	5.43429
20.65516	-10.54660	5.43429
20.65934	-10.54660	5.43429
20.66373	-10.56857	5.43429
20.66804	-10.56857	5.43429
20.67222	-10.56857	5.43429
20.67640	-10.56857	5.43429
20.68059	-10.59054	5.43429
20.68477	-10.59054	5.43429
20.68896	-10.59054	5.43429
20.69323	-10.61252	5.43429
20.69748	-10.61252	5.43429
20.70167	-10.61252	5.43429
20.70586	-10.61252	5.43429
20.71004	-10.63449	5.43429
20.71422	-10.61252	5.43429
20.71840	-10.63449	5.43429
20.72265	-10.63449	5.43429
20.72692	-10.63449	5.43429
20.73112	-10.63449	5.43429
20.73531	-10.63449	5.43429
20.73949	-10.63449	5.43429
20.74368	-10.63449	5.43429
20.74786	-10.63449	5.43429
20.75204	-10.65646	5.43429
20.75634	-10.65646	5.43429
20.76054	-10.65646	5.43429
20.76472	-10.65646	5.43429
20.76902	-10.65646	5.43429
20.77320	-10.65646	5.43429
20.77739	-10.65646	5.43429
20.78160	-10.65646	5.43429
20.78603	-10.65646	5.43429
20.79024	-10.65646	5.43429
20.79440	-10.65646	5.43429
20.79859	-10.65646	5.43429
20.80278	-10.65646	5.43429
20.80697	-10.65646	5.43429
20.81115	-10.65646	5.43429
20.81542	-10.65646	5.43429
20.81969	-10.65646	5.43429
20.82388	-10.65646	5.43429
20.82807	-10.63449	5.43429
20.83225	-10.63449	5.43429
20.83644	-10.63449	5.43429
20.84062	-10.63449	5.43429
20.84487	-10.63449	5.43429
20.84915	-10.63449	5.43429
20.85335	-10.63449	5.43429
20.85754	-10.63449	5.43429
20.86172	-10.61252	5.43429
20.86591	-10.61252	5.43429
20.87019	-10.61252	5.43429
20.87439	-10.61252	5.43429
20.87869	-10.59054	5.43429
20.88290	-10.59054	5.43429
20.88708	-10.59054	5.43429
20.89127	-10.56857	5.43429
20.89545	-10.56857	5.43429
20.89964	-10.56857	5.43429
20.90382	-10.56857	5.43429
20.90823	-10.54660	5.43429
20.91244	-10.54660	5.43429
20.91662	-10.52463	5.43429
20.92081	-10.52463	5.43429
20.92499	-10.52463	5.43429
20.92918	-10.52463	5.43429
20.93336	-10.50265	5.43429
20.93762	-10.48068	5.43429
20.94188	-10.48068	5.43429
20.94607	-10.45871	5.43429
20.95027	-10.45871	5.43429
20.95446	-10.43673	5.43429
20.95864	-10.43673	5.43429
20.96283	-10.41476	5.43429
20.96708	-10.41476	5.43429
20.97146	-10.39279	5.43429
20.97566	-10.39279	5.43429
20.97984	-10.37082	5.43429
20.98403	-10.37082	5.43429
20.98821	-10.37082	5.43429
20.99240	-10.34884	5.43429
20.99658	-10.32687	5.43429
21.00087	-10.32687	5.43429
21.00507	-10.30490	5.43429
21.00926	-10.30490	5.43429
21.01344	-10.28293	5.43429
21.01763	-10.28293	5.43429
21.02181	-10.26095	5.43429
21.02600	-10.23898	5.43429
21.03040	-10.21701	5.43429
21.03461	-10.19504	5.43429
21.03880	-10.19504	5.43429
21.04298	-10.19504	5.43429
21.04717	-10.17306	5.43429
21.05135	-10.15109	5.43429
21.05553	-10.12912	5.43429
21.05980	-10.10714	5.43429
21.06405	-10.10714	5.43429
21.06825	-10.08517	5.43429
21.07254	-10.06320	5.43429
21.07672	-10.06320	5.43429
21.08091	-10.04123	5.43429
21.08509	-10.04123	5.43429
21.08934	-10.01925	5.43429
21.09361	-9.99728	5.43429
21.09781	-9.97531	5.43429
21.10199	-9.95334	5.43429
21.10618	-9.93136	5.43429
21.11037	-9.90939	5.43429
21.11455	-9.90939	5.43429
21.11874	-9.88742	5.43429
21.12303	-9.86545	5.43429
21.12723	-9.86545	5.43429
21.13141	-9.82150	5.43429
21.13560	-9.82150	5.43429
21.13978	-9.82150	5.43429
21.14397	-9.79953	5.43429
21.14815	-9.77756	5.43429
21.15254	-9.75558	5.43429
21.15675	-9.73361	5.43429
21.16093	-9.71164	5.43429
21.16512	-9.71164	5.43429
21.16930	-9.68966	5.43429
21.17359	-9.66769	5.43429
21.17777	-9.64572	5.43429
21.18205	-9.62375	5.43429
21.18631	-9.60177	5.43429
21.19050	-9.57980	5.43429
21.19469	-9.57980	5.43429
21.19887	-9.55783	5.43429
21.20306	-9.53586	5.43429
21.20724	-9.51388	5.43429
21.21149	-9.49191	5.43429
21.21576	-9.46994	5.43429
21.21995	-9.46994	5.43429
21.22414	-9.44797	5.43429
21.22832	-9.42599	5.43429
21.23252	-9.40402	5.43429
21.23671	-9.38205	5.43429
21.24090	-9.36007	5.43429
21.24520	-9.31613	5.43429
21.24941	-9.31613	5.43429
21.25360	-9.31613	5.43429
21.25778	-9.29416	5.43429
21.26197	-9.27218	5.43429
21.26615	-9.22824	5.43429
21.27034	-9.22824	5.43429
21.27485	-9.20627	5.43429
21.27905	-9.20627	5.43429
21.28324	-9.18429	5.43429
21.28743	-9.14035	5.43429
21.29161	-9.14035	5.43429
21.29580	-9.11838	5.43429
21.29998	-9.11838	5.43429
21.30424	-9.07443	5.43429
21.30850	-9.07443	5.43429
21.31270	-9.05246	5.43429
21.31689	-9.03048	5.43429
21.32108	-9.00851	5.43429
21.32527	-9.00851	5.43429
21.32945	-8.98654	5.43429
21.33373	-8.96457	5.43429
21.33802	-8.94259	5.43429
21.34222	-8.92062	5.43429
21.34640	-8.92062	5.43429
21.35059	-8.89865	5.43429
21.35478	-8.87668	5.43429
21.35896	-8.85470	5.43429
21.36315	-8.83273	5.43429
21.36745	-8.81076	5.43429
21.37165	-8.78879	5.43429
21.37594	-8.78879	5.43429
21.38013	-8.76681	5.43429
21.38431	-8.74484	5.43429
21.38850	-8.72287	5.43429
21.39268	-8.70089	5.43429
21.39708	-8.67892	5.43429
21.40129	-8.67892	5.43429
21.40547	-8.67892	5.43429
21.40984	-8.65695	5.43429
21.41403	-8.63498	5.43429
21.41822	-8.61300	5.43429
21.42240	-8.59103	5.43429
21.42667	-8.56906	5.43429
21.43093	-8.56906	5.43429
21.43513	-8.56906	5.43429
21.43932	-8.54709	5.43429
21.44352	-8.52511	5.43429
21.44771	-8.50314	5.43429
21.45190	-8.50314	5.43429
21.45614	-8.50314	5.43429
21.46041	-8.48117	5.43429
21.46461	-8.45920	5.43429
21.46883	-8.43722	5.43429
21.47303	-8.41525	5.43429
21.47734	-8.39328	5.43429
21.48153	-8.39328	5.43429
21.48572	-8.39328	5.43429
21.49007	-8.37131	5.43429
21.49430	-8.34933	5.43429
21.49851	-8.32736	5.43429
21.50270	-8.32736	5.43429
21.50689	-8.30539	5.43429
21.51108	-8.30539	5.43429
21.51526	-8.28341	5.43429
21.51991	-8.26144	5.43429
21.52412	-8.26144	5.43429
21.52831	-8.23947	5.43429
21.53252	-8.23947	5.43429
21.53672	-8.21750	5.43429
21.54090	-8.21750	5.43429
21.54509	-8.19552	5.43429
21.54937	-8.19552	5.43429
21.55362	-8.17355	5.43429
21.55781	-8.15158	5.43429
21.56200	-8.15158	5.43429
21.56618	-8.15158	5.43429
21.57038	-8.12961	5.43429
21.57456	-8.12961	5.43429
21.57896	-8.10763	5.43429
21.58323	-8.08566	5.43429
21.58743	-8.08566	5.43429
21.59161	-8.08566	5.43429
21.59580	-8.06369	5.43429
21.59998	-8.04172	5.43429
21.60417	-8.04172	5.43429
21.60835	-8.04172	5.43429
21.61264	-8.04172	5.43429
21.61685	-8.04172	5.43429
21.62104	-7.99777	5.43429
21.62522	-7.99777	5.43429
21.62941	-7.99777	5.43429
21.63359	-7.97580	5.43429
21.63777	-7.97580	5.43429
21.64216	-7.97580	5.43429
21.64637	-7.95382	5.43429
21.65056	-7.93185	5.43429
21.65475	-7.93185	5.43429
21.65893	-7.93185	5.43429
21.66312	-7.90988	5.43429
21.66730	-7.90988	5.43429
21.67158	-7.90988	5.43429
21.67583	-7.88791	5.43429
21.68012	-7.88791	5.43429
21.68431	-7.88791	5.43429
21.68849	-7.86593	5.43429
21.69268	-7.86593	5.43429
21.69686	-7.84396	5.43429
21.70111	-7.84396	5.43429
21.70538	-7.84396	5.43429
21.70958	-7.82199	5.43429
21.71376	-7.82199	5.43429
21.71795	-7.80002	5.43429
21.72213	-7.80002	5.43429
21.72632	-7.80002	5.43429
21.73051	-7.80002	5.43429
21.73480	-7.80002	5.43429
21.73900	-7.77804	5.43429
21.74319	-7.77804	5.43429
21.74737	-7.77804	5.43429
21.75156	-7.77804	5.43429
21.75574	-7.75607	5.43429
21.75993	-7.75607	5.43429
21.76432	-7.75607	5.43429
21.76854	-7.73410	5.43429
21.77274	-7.73410	5.43429
21.77692	-7.73410	5.43429
21.78121	-7.73410	5.43429
21.78540	-7.73410	5.43429
21.78958	-7.71213	5.43429
21.79385	-7.71213	5.43429
21.79812	-7.71213	5.43429
21.80233	-7.71213	5.43429
21.80652	-7.69015	5.43429
21.81070	-7.69015	5.43429
21.81489	-7.69015	5.43429
21.81907	-7.69015	5.43429
21.82333	-7.69015	5.43429
21.82761	-7.69015	5.43429
21.83181	-7.66818	5.43429
21.83600	-7.69015	5.43429
21.84019	-7.66818	5.43429
21.84437	-7.66818	5.43429
21.84856	-7.66818	5.43429
21.85274	-7.66818	5.43429
21.85704	-7.66818	5.43429
21.86125	-7.66818	5.43429
21.86543	-7.66818	5.43429
21.86962	-7.66818	5.43429
21.87381	-7.66818	5.43429
21.87799	-7.66818	5.43429
21.88229	-7.64621	5.43429
21.88667	-7.64621	5.43429
21.89087	-7.64621	5.43429
21.89505	-7.64621	5.43429
21.89924	-7.64621	5.43429
21.90342	-7.64621	5.43429
21.90761	-7.64621	5.43429
21.91179	-7.64621	5.43429
21.91606	-7.64621	5.43429
21.92031	-7.64621	5.43429
21.92450	-7.64621	5.43429
21.92869	-7.64621	5.43429
21.93287	-7.64621	5.43429
21.93706	-7.64621	5.43429
21.94125	-7.64621	5.43429
21.94550	-7.64621	5.43429
21.94978	-7.64621	5.43429
21.95398	-7.64621	5.43429
21.95817	-7.66818	5.43429
21.96236	-7.66818	5.43429
21.96654	-7.66818	5.43429
21.97073	-7.64621	5.43429
21.97491	-7.64621	5.43429
21.97920	-7.64621	5.43429
21.98351	-7.64621	5.43429
21.98770	-7.66818	5.43429
21.99188	-7.66818	5.43429
21.99607	-7.66818	5.43429
22.00025	-7.66818	5.43429
22.00444	-7.66818	5.43429
22.00884	-7.66818	5.43429
22.01304	-7.66818	5.43429
22.01723	-7.66818	5.43429
22.02142	-7.66818	5.43429
22.02560	-7.69015	5.43429
22.02979	-7.69015	5.43429
22.03397	-7.69015	5.43429
22.03825	-7.69015	5.43429
22.04249	-7.69015	5.43429
22.04667	-7.69015	5.43429
22.05086	-7.69015	5.43429
22.05505	-7.71213	5.43429
22.05923	-7.71213	5.43429
22.06342	-7.71213	5.43429
22.06768	-7.71213	5.43429
22.07196	-7.71213	5.43429
22.07615	-7.71213	5.43429
22.08033	-7.71213	5.43429
22.08462	-7.73410	5.43429
22.08880	-7.73410	5.43429
22.09299	-7.73410	5.43429
22.09717	-7.73410	5.43429
22.10146	-7.73410	5.43429
22.10566	-7.75607	5.43429
22.10985	-7.75607	5.43429
22.11403	-7.75607	5.43429
22.11822	-7.75607	5.43429
22.12240	-7.77804	5.43429
22.12659	-7.75607	5.43429
22.13099	-7.77804	5.43429
22.13519	-7.77804	5.43429
22.13938	-7.77804	5.43429
22.14358	-7.77804	5.43429
22.14776	-7.80002	5.43429
22.15195	-7.77804	5.43429
22.15613	-7.80002	5.43429
22.16040	-7.82199	5.43429
22.16466	-7.82199	5.43429
22.16885	-7.80002	5.43429
22.17304	-7.80002	5.43429
22.17722	-7.82199	5.43429
22.18141	-7.82199	5.43429
22.18570	-7.82199	5.43429
22.18995	-7.84396	5.43429
22.19423	-7.84396	5.43429
22.19842	-7.84396	5.43429
22.20260	-7.84396	5.43429
22.20679	-7.84396	5.43429
22.21097	-7.86593	5.43429
22.21516	-7.86593	5.43429
22.21934	-7.86593	5.43429
22.22363	-7.86593	5.43429
22.22783	-7.88791	5.43429
22.23203	-7.88791	5.43429
22.23622	-7.88791	5.43429
22.24041	-7.90988	5.43429
22.24460	-7.90988	5.43429
22.24878	-7.90988	5.43429
22.25320	-7.90988	5.43429
22.25741	-7.90988	5.43429
22.26159	-7.90988	5.43429
22.26578	-7.93185	5.43429
22.26997	-7.93185	5.43429
22.27416	-7.93185	5.43429
22.27836	-7.93185	5.43429
22.28263	-7.93185	5.43429
22.28699	-7.95382	5.43429
22.29118	-7.95382	5.43429
22.29537	-7.95382	5.43429
22.29955	-7.95382	5.43429
22.30373	-7.95382	5.43429
22.30792	-7.97580	5.43429
22.31220	-7.97580	5.43429
22.31649	-7.97580	5.43429
22.32068	-7.99777	5.43429
22.32487	-7.99777	5.43429
22.32905	-7.99777	5.43429
22.33324	-7.99777	5.43429
22.33742	-8.01974	5.43429
22.34161	-8.01974	5.43429
22.34590	-8.01974	5.43429
22.35011	-8.01974	5.43429
22.35431	-8.01974	5.43429
22.35849	-8.04172	5.43429
22.36267	-8.04172	5.43429
22.36686	-8.04172	5.43429
22.37104	-8.04172	5.43429
22.37543	-8.04172	5.43429
22.37964	-8.06369	5.43429
22.38384	-8.06369	5.43429
22.38813	-8.06369	5.43429
22.39232	-8.06369	5.43429
22.39650	-8.08566	5.43429
22.40069	-8.08566	5.43429
22.40497	-8.08566	5.43429
22.40923	-8.08566	5.43429
22.41346	-8.08566	5.43429
22.41765	-8.10763	5.43429
22.42184	-8.10763	5.43429
22.42603	-8.10763	5.43429
22.43021	-8.10763	5.43429
22.43450	-8.10763	5.43429
22.43878	-8.12961	5.43429
22.44298	-8.12961	5.43429
22.44717	-8.12961	5.43429
22.45136	-8.15158	5.43429
22.45554	-8.15158	5.43429
22.45973	-8.15158	5.43429
22.46391	-8.15158	5.43429
22.46821	-8.15158	5.43429
22.47241	-8.15158	5.43429
22.47660	-8.17355	5.43429
22.48078	-8.17355	5.43429
22.48497	-8.17355	5.43429
22.48926	-8.17355	5.43429
22.49344	-8.17355	5.43429
22.49785	-8.19552	5.43429
22.50205	-8.19552	5.43429
22.50624	-8.19552	5.43429
22.51040	-8.19552	5.43429
22.51459	-8.19552	5.43429
22.51877	-8.19552	5.43429
22.52296	-8.21750	5.43429
22.52722	-8.21750	5.43429
22.53147	-8.21750	5.43429
22.53567	-8.21750	5.43429
22.53985	-8.21750	5.43429
22.54404	-8.23947	5.43429
22.54822	-8.23947	5.43429
22.55241	-8.23947	5.43429
22.55666	-8.23947	5.43429
22.56094	-8.26144	5.43429
22.56513	-8.26144	5.43429
22.56932	-8.23947	5.43429
22.57351	-8.23947	5.43429
22.57769	-8.26144	5.43429
22.58187	-8.26144	5.43429
22.58606	-8.26144	5.43429
22.59047	-8.26144	5.43429
22.59467	-8.28341	5.43429
22.59886	-8.26144	5.43429
22.60304	-8.28341	5.43429
22.60723	-8.28341	5.43429
22.61141	-8.28341	5.43429
22.61560	-8.28341	5.43429
22.62011	-8.28341	5.43429
22.62433	-8.28341	5.43429
22.62852	-8.30539	5.43429
22.63271	-8.28341	5.43429
22.63689	-8.28341	5.43429
22.64108	-8.30539	5.43429
22.64526	-8.30539	5.43429
22.64953	-8.30539	5.43429
22.65379	-8.30539	5.43429
22.65798	-8.30539	5.43429
22.66216	-8.30539	5.43429
22.66635	-8.30539	5.43429
22.67054	-8.30539	5.43429
22.67473	-8.30539	5.43429
22.67898	-8.30539	5.43429
22.68326	-8.30539	5.43429
22.68745	-8.32736	5.43429
22.69174	-8.30539	5.43429
22.69593	-8.30539	5.43429
22.70011	-8.32736	5.43429
22.70430	-8.30539	5.43429
22.70848	-8.32736	5.43429
22.71277	-8.32736	5.43429
22.71698	-8.32736	5.43429
22.72117	-8.32736	5.43429
22.72535	-8.32736	5.43429
22.72954	-8.32736	5.43429
22.73372	-8.32736	5.43429
22.73790	-8.34933	5.43429
22.74231	-8.32736	5.43429
22.74651	-8.32736	5.43429
22.75070	-8.32736	5.43429
22.75489	-8.32736	5.43429
22.75908	-8.32736	5.43429
22.76326	-8.32736	5.43429
22.76744	-8.32736	5.43429
22.77172	-8.32736	5.43429
22.77597	-8.32736	5.43429
22.78016	-8.32736	5.43429
22.78435	-8.32736	5.43429
22.78853	-8.32736	5.43429
22.79282	-8.32736	5.43429
22.79700	-8.32736	5.43429
22.80125	-8.32736	5.43429
22.80553	-8.32736	5.43429
22.80973	-8.32736	5.43429
22.81391	-8.32736	5.43429
22.81810	-8.32736	5.43429
22.82229	-8.32736	5.43429
22.82648	-8.32736	5.43429
22.83066	-8.32736	5.43429
22.83496	-8.32736	5.43429
22.83915	-8.32736	5.43429
22.84334	-8.32736	5.43429
22.84752	-8.32736	5.43429
22.85171	-8.32736	5.43429
22.85589	-8.32736	5.43429
22.86008	-8.32736	5.43429
22.86447	-8.30539	5.43429
22.86868	-8.30539	5.43429
22.87286	-8.32736	5.43429
22.87705	-8.32736	5.43429
22.88123	-8.30539	5.43429
22.88542	-8.30539	5.43429
22.88960	-8.30539	5.43429
22.89401	-8.30539	5.43429
22.89826	-8.30539	5.43429
22.90241	-8.30539	5.43429
22.90659	-8.30539	5.43429
22.91078	-8.30539	5.43429
22.91496	-8.30539	5.43429
22.91914	-8.30539	5.43429
22.92339	-8.28341	5.43429
22.92766	-8.28341	5.43429
22.93186	-8.28341	5.43429
22.93605	-8.28341	5.43429
22.94023	-8.30539	5.43429
22.94450	-8.28341	5.43429
22.94871	-8.28341	5.43429
22.95290	-8.28341	5.43429
22.95720	-8.28341	5.43429
22.96141	-8.28341	5.43429
22.96560	-8.26144	5.43429
22.96979	-8.28341	5.43429
22.97397	-8.26144	5.43429
22.97816	-8.28341	5.43429
22.98235	-8.26144	5.43429
22.98676	-8.26144	5.43429
22.99096	-8.26144	5.43429
22.99525	-8.26144	5.43429
22.99944	-8.26144	5.43429
23.00362	-8.23947	5.43429
23.00781	-8.26144	5.43429
23.01199	-8.26144	5.43429
23.01626	-8.23947	5.43429
23.02052	-8.23947	5.43429
23.02471	-8.23947	5.43429
23.02890	-8.23947	5.43429
23.03309	-8.21750	5.43429
23.03728	-8.21750	5.43429
23.04146	-8.21750	5.43429
23.04572	-8.21750	5.43429
23.05000	-8.21750	5.43429
23.05420	-8.19552	5.43429
23.05840	-8.19552	5.43429
23.06258	-8.19552	5.43429
23.06677	-8.19552	5.43429
23.07095	-8.19552	5.43429
23.07514	-8.19552	5.43429
23.07944	-8.19552	5.43429
23.08365	-8.17355	5.43429
23.08784	-8.17355	5.43429
23.09203	-8.17355	5.43429
23.09636	-8.17355	5.43429
23.10054	-8.15158	5.43429
23.10473	-8.15158	5.43429
23.10917	-8.15158	5.43429
23.11338	-8.15158	5.43429
23.11758	-8.15158	5.43429
23.12177	-8.12961	5.43429
23.12595	-8.12961	5.43429
23.13014	-8.12961	5.43429
23.13433	-8.10763	5.43429
23.13861	-8.10763	5.43429
23.14287	-8.10763	5.43429
23.14707	-8.10763	5.43429
23.15126	-8.10763	5.43429
23.15544	-8.10763	5.43429
23.15963	-8.08566	5.43429
23.16381	-8.10763	5.43429
23.16808	-8.10763	5.43429
23.17235	-8.08566	5.43429
23.17655	-8.06369	5.43429
23.18074	-8.06369	5.43429
23.18492	-8.06369	5.43429
23.18911	-8.06369	5.43429
23.19330	-8.06369	5.43429
23.19759	-8.06369	5.43429
23.20188	-8.04172	5.43429
23.20608	-8.04172	5.43429
23.21028	-8.01974	5.43429
23.21447	-8.01974	5.43429
23.21866	-8.01974	5.43429
23.22284	-8.01974	5.43429
23.22702	-8.01974	5.43429
23.23143	-7.99777	5.43429
23.23564	-8.01974	5.43429
23.23983	-7.99777	5.43429
23.24402	-7.99777	5.43429
23.24821	-7.99777	5.43429
23.25241	-7.99777	5.43429
23.25659	-7.97580	5.43429
23.26086	-7.97580	5.43429
23.26512	-7.97580	5.43429
23.26932	-7.95382	5.43429
23.27350	-7.95382	5.43429
23.27769	-7.97580	5.43429
23.28187	-7.95382	5.43429
23.28606	-7.95382	5.43429
23.29032	-7.95382	5.43429
23.29459	-7.93185	5.43429
23.29889	-7.93185	5.43429
23.30308	-7.93185	5.43429
23.30727	-7.93185	5.43429
23.31146	-7.93185	5.43429
23.31565	-7.90988	5.43429
23.31983	-7.90988	5.43429
23.32413	-7.90988	5.43429
23.32833	-7.88791	5.43429
23.33253	-7.88791	5.43429
23.33672	-7.90988	5.43429
23.34090	-7.90988	5.43429
23.34509	-7.88791	5.43429
23.34927	-7.88791	5.43429
23.35368	-7.88791	5.43429
23.35788	-7.88791	5.43429
23.36207	-7.88791	5.43429
23.36626	-7.86593	5.43429
23.37041	-7.86593	5.43429
23.37461	-7.86593	5.43429
23.37879	-7.86593	5.43429
23.38307	-7.86593	5.43429
23.38734	-7.84396	5.43429
23.39154	-7.84396	5.43429
23.39573	-7.84396	5.43429
23.40002	-7.84396	5.43429
23.40421	-7.84396	5.43429
23.40840	-7.84396	5.43429
23.41273	-7.84396	5.43429
23.41703	-7.82199	5.43429
23.42123	-7.82199	5.43429
23.42541	-7.82199	5.43429
23.42960	-7.82199	5.43429
23.43379	-7.82199	5.43429
23.43797	-7.82199	5.43429
23.44216	-7.80002	5.43429
23.44647	-7.80002	5.43429
23.45068	-7.80002	5.43429
23.45488	-7.80002	5.43429
23.45906	-7.80002	5.43429
23.46325	-7.80002	5.43429
23.46743	-7.80002	5.43429
23.47162	-7.80002	5.43429
23.47601	-7.77804	5.43429
23.48022	-7.77804	5.43429
23.48441	-7.77804	5.43429
23.48859	-7.80002	5.43429
23.49278	-7.77804	5.43429
23.49696	-7.77804	5.43429
23.50125	-7.77804	5.43429
23.50553	-7.77804	5.43429
23.50978	-7.77804	5.43429
23.51397	-7.77804	5.43429
23.51816	-7.77804	5.43429
23.52236	-7.77804	5.43429
23.52654	-7.75607	5.43429
23.53073	-7.77804	5.43429
23.53499	-7.75607	5.43429
23.53927	-7.75607	5.43429
23.54347	-7.75607	5.43429
23.54765	-7.75607	5.43429
23.55184	-7.75607	5.43429
23.55603	-7.75607	5.43429
23.56021	-7.75607	5.43429
23.56440	-7.75607	5.43429
23.56870	-7.75607	5.43429
23.57289	-7.75607	5.43429
23.57708	-7.73410	5.43429
23.58127	-7.73410	5.43429
23.58546	-7.73410	5.43429
23.58964	-7.73410	5.43429
23.59383	-7.73410	5.43429
23.59821	-7.73410	5.43429
23.60252	-7.73410	5.43429
23.60671	-7.73410	5.43429
23.61089	-7.73410	5.43429
23.61508	-7.73410	5.43429
23.61926	-7.73410	5.43429
23.62345	-7.73410	5.43429
23.62773	-7.73410	5.43429
23.63199	-7.73410	5.43429
23.63618	-7.73410	5.43429
23.64036	-7.73410	5.43429
23.64455	-7.73410	5.43429
23.64873	-7.73410	5.43429
23.65292	-7.71213	5.43429
23.65718	-7.73410	5.43429
23.66145	-7.71213	5.43429
23.66566	-7.73410	5.43429
23.66985	-7.73410	5.43429
23.67403	-7.71213	5.43429
23.67821	-7.71213	5.43429
23.68240	-7.71213	5.43429
23.68658	-7.71213	5.43429
23.69087	-7.71213	5.43429
23.69507	-7.71213	5.43429
23.69926	-7.71213	5.43429
23.70355	-7.71213	5.43429
23.70774	-7.71213	5.43429
23.71192	-7.71213	5.43429
23.71610	-7.71213	5.43429
23.72049	-7.71213	5.43429
23.72470	-7.71213	5.43429
23.72888	-7.71213	5.43429
23.73307	-7.69015	5.43429
23.73726	-7.69015	5.43429
23.74144	-7.71213	5.43429
23.74563	-7.71213	5.43429
23.74991	-7.71213	5.43429
23.75416	-7.71213	5.43429
23.75838	-7.71213	5.43429
23.76256	-7.69015	5.43429
23.76675	-7.71213	5.43429
23.77093	-7.71213	5.43429
23.77512	-7.71213	5.43429
23.77938	-7.71213	5.43429
23.78365	-7.69015	5.43429
23.78784	-7.69015	5.43429
23.79203	-7.69015	5.43429
23.79622	-7.69015	5.43429
23.80040	-7.69015	5.43429
23.80469	-7.69015	5.43429
23.80890	-7.69015	5.43429
23.81321	-7.69015	5.43429
23.81742	-7.69015	5.43429
23.82161	-7.69015	5.43429
23.82580	-7.69015	5.43429
23.82998	-7.71213	5.43429
23.83417	-7.69015	5.43429
23.83836	-7.71213	5.43429
23.84278	-7.69015	5.43429
23.84699	-7.69015	5.43429
23.85119	-7.69015	5.43429
23.85537	-7.69015	5.43429
23.85956	-7.69015	5.43429
23.86374	-7.69015	5.43429
23.86793	-7.71213	5.43429
23.87220	-7.69015	5.43429
23.87646	-7.71213	5.43429
23.88065	-7.71213	5.43429
23.88484	-7.69015	5.43429
23.88902	-7.71213	5.43429
23.89321	-7.71213	5.43429
23.89740	-7.71213	5.43429
23.90165	-7.71213	5.43429
23.90603	-7.71213	5.43429
23.91023	-7.71213	5.43429
23.91441	-7.71213	5.43429
23.91860	-7.71213	5.43429
23.92278	-7.71213	5.43429
23.92697	-7.71213	5.43429
23.93115	-7.71213	5.43429
23.93545	-7.69015	5.43429
23.93965	-7.71213	5.43429
23.94383	-7.71213	5.43429
23.94802	-7.71213	5.43429
23.95221	-7.71213	5.43429
23.95640	-7.71213	5.43429
23.96058	-7.71213	5.43429
23.96498	-7.73410	5.43429
23.96919	-7.71213	5.43429
23.97338	-7.73410	5.43429
23.97756	-7.73410	5.43429
23.98175	-7.71213	5.43429
23.98594	-7.71213	5.43429
23.99012	-7.73410	5.43429
23.99442	-7.71213	5.43429
23.99868	-7.73410	5.43429
24.00287	-7.73410	5.43429
24.00716	-7.73410	5.43429
24.01135	-7.73410	5.43429
24.01553	-7.73410	5.43429
24.01972	-7.73410	5.43429
24.02398	-7.73410	5.43429
24.02826	-7.73410	5.43429
24.03246	-7.73410	5.43429
24.03665	-7.73410	5.43429
24.04084	-7.73410	5.43429
24.04502	-7.75607	5.43429
24.04921	-7.73410	5.43429
24.05340	-7.73410	5.43429
24.05770	-7.75607	5.43429
24.06191	-7.75607	5.43429
24.06610	-7.75607	5.43429
24.07030	-7.75607	5.43429
24.07448	-7.75607	5.43429
24.07867	-7.75607	5.43429
24.08285	-7.75607	5.43429
24.08726	-7.75607	5.43429
24.09147	-7.75607	5.43429
24.09566	-7.75607	5.43429
24.09984	-7.75607	5.43429
24.10403	-7.77804	5.43429
24.10832	-7.77804	5.43429
24.11251	-7.75607	5.43429
24.11678	-7.77804	5.43429
24.12104	-7.77804	5.43429
24.12523	-7.77804	5.43429
24.12942	-7.77804	5.43429
24.13360	-7.80002	5.43429
24.13779	-7.80002	5.43429
24.14197	-7.80002	5.43429
24.14623	-7.80002	5.43429
24.15050	-7.80002	5.43429
24.15470	-7.80002	5.43429
24.15889	-7.80002	5.43429
24.16307	-7.80002	5.43429
24.16726	-7.80002	5.43429
24.17144	-7.82199	5.43429
24.17563	-7.82199	5.43429
24.17992	-7.82199	5.43429
24.18413	-7.82199	5.43429
24.18831	-7.82199	5.43429
24.19250	-7.82199	5.43429
24.19668	-7.82199	5.43429
24.20087	-7.84396	5.43429
24.20505	-7.82199	5.43429
24.20955	-7.84396	5.43429
24.21375	-7.84396	5.43429
24.21794	-7.84396	5.43429
24.22212	-7.84396	5.43429
24.22631	-7.84396	5.43429
24.23050	-7.84396	5.43429
24.23469	-7.86593	5.43429
24.23897	-7.86593	5.43429
24.24323	-7.86593	5.43429
24.24743	-7.86593	5.43429
24.25162	-7.86593	5.43429
24.25580	-7.86593	5.43429
24.25999	-7.88791	5.43429
24.26417	-7.88791	5.43429
24.26843	-7.88791	5.43429
24.27271	-7.88791	5.43429
24.27690	-7.88791	5.43429
24.28109	-7.88791	5.43429
24.28528	-7.90988	5.43429
24.28946	-7.90988	5.43429
24.29365	-7.90988	5.43429
24.29783	-7.90988	5.43429
24.30213	-7.90988	5.43429
24.30634	-7.90988	5.43429
24.31064	-7.93185	5.43429
24.31484	-7.93185	5.43429
24.31903	-7.93185	5.43429
24.32321	-7.93185	5.43429
24.32740	-7.93185	5.43429
24.33182	-7.93185	5.43429
24.33603	-7.95382	5.43429
24.34022	-7.95382	5.43429
24.34440	-7.95382	5.43429
24.34859	-7.95382	5.43429
24.35278	-7.95382	5.43429
24.35696	-7.95382	5.43429
24.36125	-7.95382	5.43429
24.36550	-7.97580	5.43429
24.36969	-7.97580	5.43429
24.37388	-7.97580	5.43429
24.37807	-7.97580	5.43429
24.38225	-7.97580	5.43429
24.38640	-7.99777	5.43429
24.39066	-7.99777	5.43429
24.39494	-7.99777	5.43429
24.39914	-7.99777	5.43429
24.40332	-7.99777	5.43429
24.40751	-7.99777	5.43429
24.41183	-8.01974	5.43429
24.41602	-8.01974	5.43429
24.42021	-8.01974	5.43429
24.42450	-8.01974	5.43429
24.42870	-8.01974	5.43429
24.43289	-8.01974	5.43429
24.43708	-8.01974	5.43429
24.44127	-8.04172	5.43429
24.44545	-8.04172	5.43429
24.44964	-8.04172	5.43429
24.45405	-8.04172	5.43429
24.45826	-8.04172	5.43429
24.46240	-8.04172	5.43429
24.46659	-8.04172	5.43429
24.47078	-8.06369	5.43429
24.47496	-8.06369	5.43429
24.47915	-8.06369	5.43429
24.48341	-8.06369	5.43429
24.48766	-8.06369	5.43429
24.49186	-8.06369	5.43429
24.49604	-8.06369	5.43429
24.50023	-8.08566	5.43429
24.50442	-8.08566	5.43429
24.50860	-8.08566	5.43429
24.51297	-8.08566	5.43429
24.51724	-8.08566	5.43429
24.52144	-8.08566	5.43429
24.52563	-8.08566	5.43429
24.52981	-8.08566	5.43429
24.53400	-8.08566	5.43429
24.53818	-8.08566	5.43429
24.54240	-8.10763	5.43429
24.54672	-8.08566	5.43429
24.55094	-8.10763	5.43429
24.55513	-8.10763	5.43429
24.55932	-8.10763	5.43429
24.56350	-8.10763	5.43429
24.56769	-8.10763	5.43429
24.57187	-8.10763	5.43429
24.57628	-8.10763	5.43429
24.58050	-8.10763	5.43429
24.58469	-8.10763	5.43429
24.58887	-8.12961	5.43429
24.59306	-8.12961	5.43429
24.59724	-8.10763	5.43429
24.60143	-8.10763	5.43429
24.60571	-8.12961	5.43429
24.60996	-8.12961	5.43429
24.61426	-8.12961	5.43429
24.61841	-8.12961	5.43429
24.62259	-8.12961	5.43429
24.62678	-8.12961	5.43429
24.63096	-8.12961	5.43429
24.63521	-8.12961	5.43429
24.63949	-8.12961	5.43429
24.64369	-8.12961	5.43429
24.64788	-8.12961	5.43429
24.65207	-8.12961	5.43429
24.65625	-8.12961	5.43429
24.66044	-8.12961	5.43429
24.66462	-8.12961	5.43429
24.66892	-8.12961	5.43429
24.67312	-8.12961	5.43429
24.67731	-8.12961	5.43429
24.68149	-8.12961	5.43429
24.68568	-8.12961	5.43429
24.68986	-8.12961	5.43429
24.69405	-8.12961	5.43429
24.69845	-8.12961	5.43429
24.70266	-8.12961	5.43429
24.70684	-8.12961	5.43429
24.71103	-8.12961	5.43429
24.71532	-8.12961	5.43429
24.71950	-8.12961	5.43429
24.72369	-8.12961	5.43429
24.72796	-8.12961	5.43429
24.73222	-8.12961	5.43429
24.73641	-8.12961	5.43429
24.74059	-8.12961	5.43429
24.74478	-8.12961	5.43429
24.74896	-8.12961	5.43429
24.75315	-8.12961	5.43429
24.75740	-8.12961	5.43429
24.76168	-8.12961	5.43429
24.76589	-8.12961	5.43429
24.77008	-8.12961	5.43429
24.77426	-8.12961	5.43429
24.77840	-8.12961	5.43429
24.78261	-8.12961	5.43429
24.78679	-8.12961	5.43429
24.79109	-8.10763	5.43429
24.79529	-8.10763	5.43429
24.79948	-8.10763	5.43429
24.80367	-8.10763	5.43429
24.80785	-8.10763	5.43429
24.81205	-8.10763	5.43429
24.81634	-8.10763	5.43429
24.82077	-8.10763	5.43429
24.82497	-8.10763	5.43429
24.82916	-8.10763	5.43429
24.83336	-8.10763	5.43429
24.83755	-8.10763	5.43429
24.84174	-8.10763	5.43429
24.84593	-8.10763	5.43429
24.85020	-8.10763	5.43429
24.85447	-8.10763	5.43429
24.85866	-8.08566	5.43429
24.86285	-8.08566	5.43429
24.86704	-8.08566	5.43429
24.87123	-8.08566	5.43429
24.87541	-8.08566	5.43429
24.87967	-8.06369	5.43429
24.88395	-8.06369	5.43429
24.88814	-8.08566	5.43429
24.89233	-8.06369	5.43429
24.89651	-8.08566	5.43429
24.90070	-8.06369	5.43429
24.90488	-8.06369	5.43429
24.90907	-8.06369	5.43429
24.91336	-8.06369	5.43429
24.91767	-8.06369	5.43429
24.92185	-8.06369	5.43429
24.92604	-8.06369	5.43429
24.93023	-8.06369	5.43429
24.93440	-8.04172	5.43429
24.93858	-8.04172	5.43429
24.94298	-8.04172	5.43429
24.94719	-8.04172	5.43429
24.95138	-8.04172	5.43429
24.95556	-8.04172	5.43429
24.95974	-8.04172	5.43429
24.96393	-8.01974	5.43429
24.96811	-8.01974	5.43429
24.97239	-8.01974	5.43429
24.97667	-8.01974	5.43429
24.98088	-8.01974	5.43429
24.98507	-8.01974	5.43429
24.98926	-8.01974	5.43429
24.99345	-7.99777	5.43429
24.99765	-8.01974	5.43429
25.00190	-7.99777	5.43429
25.00619	-7.99777	5.43429
25.01040	-7.99777	5.43429
25.01460	-7.99777	5.43429
25.01890	-7.99777	5.43429
25.02309	-7.99777	5.43429
25.02728	-7.97580	5.43429
25.03147	-7.99777	5.43429
25.03577	-7.99777	5.43429
25.03998	-7.99777	5.43429
25.04417	-7.97580	5.43429
25.04837	-7.97580	5.43429
25.05256	-7.97580	5.43429
25.05675	-7.97580	5.43429
25.06094	-7.97580	5.43429
25.06532	-7.97580	5.43429
25.06953	-7.95382	5.43429
25.07372	-7.95382	5.43429
25.07791	-7.95382	5.43429
25.08211	-7.95382	5.43429
25.08631	-7.95382	5.43429
25.09050	-7.95382	5.43429
25.09482	-7.95382	5.43429
25.09908	-7.95382	5.43429
25.10328	-7.95382	5.43429
25.10747	-7.95382	5.43429
25.11166	-7.93185	5.43429
25.11585	-7.95382	5.43429
25.12015	-7.95382	5.43429
25.12440	-7.93185	5.43429
25.12867	-7.93185	5.43429
25.13287	-7.93185	5.43429
25.13706	-7.93185	5.43429
25.14124	-7.93185	5.43429
25.14542	-7.93185	5.43429
25.14961	-7.93185	5.43429
25.15379	-7.93185	5.43429
25.15808	-7.93185	5.43429
25.16230	-7.93185	5.43429
25.16649	-7.93185	5.43429
25.17067	-7.93185	5.43429
25.17486	-7.93185	5.43429
25.17904	-7.93185	5.43429
25.18323	-7.93185	5.43429
25.18762	-7.93185	5.43429
25.19183	-7.93185	5.43429
25.19601	-7.93185	5.43429
25.20020	-7.90988	5.43429
25.20439	-7.93185	5.43429
25.20858	-7.90988	5.43429
25.21276	-7.90988	5.43429
25.21704	-7.90988	5.43429
25.22140	-7.90988	5.43429
25.22559	-7.90988	5.43429
25.22978	-7.93185	5.43429
25.23396	-7.90988	5.43429
25.23815	-7.90988	5.43429
25.24234	-7.90988	5.43429
25.24661	-7.90988	5.43429
25.25089	-7.90988	5.43429
25.25508	-7.90988	5.43429
25.25927	-7.90988	5.43429
25.26346	-7.90988	5.43429
25.26766	-7.90988	5.43429
25.27184	-7.90988	5.43429
25.27603	-7.90988	5.43429
25.28033	-7.90988	5.43429
25.28453	-7.90988	5.43429
25.28872	-7.90988	5.43429
25.29290	-7.90988	5.43429
25.29709	-7.90988	5.43429
25.30127	-7.90988	5.43429
25.30546	-7.90988	5.43429
25.30985	-7.90988	5.43429
25.31406	-7.90988	5.43429
25.31825	-7.90988	5.43429
25.32251	-7.90988	5.43429
25.32669	-7.90988	5.43429
25.33088	-7.90988	5.43429
25.33506	-7.90988	5.43429
25.33933	-7.90988	5.43429
25.34359	-7.90988	5.43429
25.34779	-7.90988	5.43429
25.35197	-7.90988	5.43429
25.35616	-7.90988	5.43429
25.36034	-7.90988	5.43429
25.36453	-7.90988	5.43429
25.36878	-7.90988	5.43429
25.37305	-7.90988	5.43429
25.37725	-7.90988	5.43429
25.38143	-7.90988	5.43429
25.38562	-7.90988	5.43429
25.38980	-7.93185	5.43429
25.39399	-7.90988	5.43429
25.39817	-7.90988	5.43429
25.40249	-7.90988	5.43429
25.40669	-7.90988	5.43429
25.41091	-7.90988	5.43429
25.41511	-7.90988	5.43429
25.41929	-7.90988	5.43429
25.42358	-7.93185	5.43429
25.42777	-7.90988	5.43429
25.43218	-7.90988	5.43429
25.43639	-7.93185	5.43429
25.44058	-7.93185	5.43429
25.44477	-7.90988	5.43429
25.44895	-7.93185	5.43429
25.45314	-7.93185	5.43429
25.45733	-7.93185	5.43429
25.46159	-7.93185	5.43429
25.46585	-7.93185	5.43429
25.47005	-7.93185	5.43429
25.47424	-7.93185	5.43429
25.47840	-7.93185	5.43429
25.48259	-7.93185	5.43429
25.48677	-7.93185	5.43429
25.49104	-7.93185	5.43429
25.49531	-7.93185	5.43429
25.49951	-7.93185	5.43429
25.50370	-7.93185	5.43429
25.50788	-7.93185	5.43429
25.51207	-7.93185	5.43429
25.51625	-7.93185	5.43429
25.52044	-7.95382	5.43429
25.52484	-7.95382	5.43429
25.52904	-7.95382	5.43429
25.53323	-7.95382	5.43429
25.53742	-7.95382	5.43429
25.54160	-7.95382	5.43429
25.54579	-7.95382	5.43429
25.54997	-7.95382	5.43429
25.55439	-7.95382	5.43429
25.55860	-7.97580	5.43429
25.56278	-7.95382	5.43429
25.56697	-7.95382	5.43429
25.57116	-7.97580	5.43429
25.57535	-7.97580	5.43429
25.57953	-7.97580	5.43429
25.58380	-7.97580	5.43429
25.58806	-7.97580	5.43429
25.59225	-7.97580	5.43429
25.59643	-7.97580	5.43429
25.60062	-7.97580	5.43429
25.60480	-7.97580	5.43429
25.60899	-7.97580	5.43429
25.61324	-7.97580	5.43429
25.61752	-7.97580	5.43429
25.62172	-7.99777	5.43429
25.62600	-7.99777	5.43429
25.63019	-7.99777	5.43429
25.63438	-7.99777	5.43429
25.63857	-7.99777	5.43429
25.64275	-7.99777	5.43429
25.64704	-7.99777	5.43429
25.65124	-7.99777	5.43429
25.65543	-7.99777	5.43429
25.65962	-8.01974	5.43429
25.66380	-8.01974	5.43429
25.66798	-8.01974	5.43429
25.67217	-8.01974	5.43429
25.67655	-8.01974	5.43429
25.68076	-8.01974	5.43429
25.68495	-8.01974	5.43429
25.68913	-8.01974	5.43429
25.69332	-8.01974	5.43429
25.69750	-8.01974	5.43429
25.70168	-8.01974	5.43429
25.70597	-8.01974	5.43429
25.71022	-8.01974	5.43429
25.71441	-8.01974	5.43429
25.71860	-8.01974	5.43429
25.72278	-8.01974	5.43429
25.72707	-8.01974	5.43429
25.73125	-8.04172	5.43429
25.73550	-8.01974	5.43429
25.73978	-8.01974	5.43429
25.74397	-8.04172	5.43429
25.74816	-8.04172	5.43429
25.75235	-8.04172	5.43429
25.75653	-8.04172	5.43429
25.76072	-8.04172	5.43429
25.76490	-8.04172	5.43429
25.76919	-8.04172	5.43429
25.77340	-8.04172	5.43429
25.77758	-8.04172	5.43429
25.78177	-8.04172	5.43429
25.78596	-8.04172	5.43429
25.79014	-8.04172	5.43429
25.79433	-8.04172	5.43429
25.79875	-8.01974	5.43429
25.80296	-8.01974	5.43429
25.80714	-8.04172	5.43429
25.81133	-8.01974	5.43429
25.81551	-8.04172	5.43429
25.81970	-8.04172	5.43429
25.82388	-8.01974	5.43429
25.82827	-8.01974	5.43429
25.83252	-8.01974	5.43429
25.83671	-8.01974	5.43429
25.84090	-8.01974	5.43429
25.84508	-8.01974	5.43429
25.84927	-8.01974	5.43429
25.85345	-8.01974	5.43429
25.85771	-8.01974	5.43429
25.86199	-8.01974	5.43429
25.86620	-8.01974	5.43429
25.87040	-8.01974	5.43429
25.87458	-8.01974	5.43429
25.87877	-8.01974	5.43429
25.88295	-8.01974	5.43429
25.88713	-8.01974	5.43429
25.89143	-7.99777	5.43429
25.89563	-7.99777	5.43429
25.89981	-8.01974	5.43429
25.90400	-7.99777	5.43429
25.90819	-7.99777	5.43429
25.91237	-7.99777	5.43429
25.91655	-7.99777	5.43429
25.92094	-7.97580	5.43429
25.92514	-7.97580	5.43429
25.92943	-7.97580	5.43429
25.93362	-7.97580	5.43429
25.93780	-7.97580	5.43429
25.94198	-7.97580	5.43429
25.94617	-7.95382	5.43429
25.95045	-7.97580	5.43429
25.95471	-7.97580	5.43429
25.95890	-7.95382	5.43429
25.96308	-7.95382	5.43429
25.96727	-7.95382	5.43429
25.97146	-7.95382	5.43429
25.97565	-7.93185	5.43429
25.97990	-7.95382	5.43429
25.98417	-7.95382	5.43429
25.98838	-7.93185	5.43429
25.99257	-7.93185	5.43429
25.99676	-7.93185	5.43429
26.00094	-7.93185	5.43429
26.00513	-7.93185	5.43429
26.00931	-7.93185	5.43429
26.01361	-7.93185	5.43429
26.01781	-7.93185	5.43429
26.02199	-7.93185	5.43429
26.02618	-7.90988	5.43429
26.03047	-7.90988	5.43429
26.03466	-7.90988	5.43429
26.03884	-7.90988	5.43429
26.04324	-7.90988	5.43429
26.04745	-7.90988	5.43429
26.05164	-7.88791	5.43429
26.05583	-7.90988	5.43429
26.06001	-7.88791	5.43429
26.06419	-7.88791	5.43429
26.06838	-7.88791	5.43429
26.07266	-7.88791	5.43429
26.07691	-7.88791	5.43429
26.08111	-7.88791	5.43429
26.08530	-7.88791	5.43429
26.08948	-7.88791	5.43429
26.09367	-7.88791	5.43429
26.09785	-7.88791	5.43429
26.10210	-7.86593	5.43429
26.10638	-7.86593	5.43429
26.11058	-7.86593	5.43429
26.11477	-7.86593	5.43429
26.11895	-7.86593	5.43429
26.12314	-7.86593	5.43429
26.12732	-7.84396	5.43429
26.13161	-7.84396	5.43429
26.13590	-7.86593	5.43429
26.14010	-7.84396	5.43429
26.14429	-7.84396	5.43429
26.14848	-7.84396	5.43429
26.15266	-7.84396	5.43429
26.15685	-7.84396	5.43429
26.16103	-7.84396	5.43429
26.16542	-7.82199	5.43429
26.16963	-7.82199	5.43429
26.17382	-7.84396	5.43429
26.17801	-7.82199	5.43429
26.18219	-7.82199	5.43429
26.18638	-7.82199	5.43429
26.19057	-7.82199	5.43429
26.19484	-7.82199	5.43429
26.19909	-7.82199	5.43429
26.20329	-7.82199	5.43429
26.20747	-7.82199	5.43429
26.21166	-7.80002	5.43429
26.21584	-7.80002	5.43429
26.22002	-7.80002	5.43429
26.22427	-7.80002	5.43429
26.22854	-7.80002	5.43429
26.23285	-7.80002	5.43429
26.23704	-7.80002	5.43429
26.24122	-7.80002	5.43429
26.24541	-7.80002	5.43429
26.24959	-7.80002	5.43429
26.25378	-7.80002	5.43429
26.25808	-7.80002	5.43429
26.26229	-7.80002	5.43429
26.26647	-7.80002	5.43429
26.27066	-7.80002	5.43429
26.27485	-7.80002	5.43429
26.27903	-7.80002	5.43429
26.28321	-7.77804	5.43429
26.28760	-7.80002	5.43429
26.29181	-7.80002	5.43429
26.29599	-7.80002	5.43429
26.30018	-7.80002	5.43429
26.30436	-7.80002	5.43429
26.30855	-7.80002	5.43429
26.31274	-7.77804	5.43429
26.31701	-7.80002	5.43429
26.32127	-7.77804	5.43429
26.32546	-7.77804	5.43429
26.32964	-7.77804	5.43429
26.33394	-7.80002	5.43429
26.33812	-7.80002	5.43429
26.34232	-7.80002	5.43429
26.34658	-7.80002	5.43429
26.35085	-7.80002	5.43429
26.35505	-7.80002	5.43429
26.35923	-7.80002	5.43429
26.36342	-7.80002	5.43429
26.36760	-7.80002	5.43429
26.37179	-7.80002	5.43429
26.37598	-7.77804	5.43429
26.38027	-7.77804	5.43429
26.38450	-7.80002	5.43429
26.38869	-7.80002	5.43429
26.39288	-7.80002	5.43429
26.39706	-7.80002	5.43429
26.40124	-7.80002	5.43429
26.40543	-7.80002	5.43429
26.40985	-7.82199	5.43429
26.41411	-7.80002	5.43429
26.41831	-7.80002	5.43429
26.42250	-7.82199	5.43429
26.42669	-7.82199	5.43429
26.43087	-7.82199	5.43429
26.43516	-7.82199	5.43429
26.43944	-7.82199	5.43429
26.44369	-7.82199	5.43429
26.44789	-7.82199	5.43429
26.45207	-7.82199	5.43429
26.45626	-7.82199	5.43429
26.46044	-7.82199	5.43429
26.46463	-7.82199	5.43429
26.46888	-7.84396	5.43429
26.47317	-7.84396	5.43429
26.47738	-7.84396	5.43429
26.48157	-7.84396	5.43429
26.48575	-7.84396	5.43429
26.48994	-7.84396	5.43429
26.49413	-7.84396	5.43429
26.49832	-7.86593	5.43429
26.50262	-7.86593	5.43429
26.50682	-7.86593	5.43429
26.51101	-7.86593	5.43429
26.51519	-7.86593	5.43429
26.51938	-7.86593	5.43429
26.52356	-7.86593	5.43429
26.52775	-7.88791	5.43429
26.53213	-7.88791	5.43429
26.53644	-7.88791	5.43429
26.54063	-7.88791	5.43429
26.54482	-7.88791	5.43429
26.54900	-7.88791	5.43429
26.55319	-7.88791	5.43429
26.55738	-7.90988	5.43429
26.56165	-7.90988	5.43429
26.56591	-7.90988	5.43429
26.57010	-7.90988	5.43429
26.57429	-7.93185	5.43429
26.57848	-7.93185	5.43429
26.58266	-7.93185	5.43429
26.58685	-7.93185	5.43429
26.59110	-7.93185	5.43429
26.59537	-7.95382	5.43429
26.59958	-7.95382	5.43429
26.60376	-7.95382	5.43429
26.60795	-7.95382	5.43429
26.61213	-7.95382	5.43429
26.61632	-7.95382	5.43429
26.62053	-7.97580	5.43429
26.62484	-7.97580	5.43429
26.62905	-7.97580	5.43429
26.63324	-7.99777	5.43429
26.63753	-7.99777	5.43429
26.64172	-7.99777	5.43429
26.64590	-7.99777	5.43429
26.65009	-8.01974	5.43429
26.65449	-8.01974	5.43429
26.65869	-8.01974	5.43429
26.66288	-8.04172	5.43429
26.66707	-8.04172	5.43429
26.67125	-8.04172	5.43429
26.67544	-8.04172	5.43429
26.67962	-8.04172	5.43429
26.68389	-8.06369	5.43429
26.68814	-8.06369	5.43429
26.69233	-8.06369	5.43429
26.69652	-8.06369	5.43429
26.70070	-8.08566	5.43429
26.70489	-8.08566	5.43429
26.70907	-8.08566	5.43429
26.71332	-8.10763	5.43429
26.71759	-8.10763	5.43429
26.72179	-8.10763	5.43429
26.72598	-8.10763	5.43429
26.73016	-8.12961	5.43429
26.73435	-8.12961	5.43429
26.73864	-8.12961	5.43429
26.74283	-8.12961	5.43429
26.74712	-8.12961	5.43429
26.75131	-8.15158	5.43429
26.75550	-8.15158	5.43429
26.75968	-8.15158	5.43429
26.76387	-8.17355	5.43429
26.76805	-8.17355	5.43429
26.77223	-8.17355	5.43429
26.77661	-8.17355	5.43429
26.78082	-8.19552	5.43429
26.78500	-8.19552	5.43429
26.78919	-8.19552	5.43429
26.79337	-8.21750	5.43429
26.79756	-8.21750	5.43429
26.80174	-8.21750	5.43429
26.80602	-8.21750	5.43429
26.81030	-8.21750	5.43429
26.81450	-8.23947	5.43429
26.81868	-8.23947	5.43429
26.82287	-8.23947	5.43429
26.82705	-8.23947	5.43429
26.83124	-8.26144	5.43429
26.83549	-8.26144	5.43429
26.83987	-8.26144	5.43429
26.84406	-8.26144	5.43429
26.84825	-8.28341	5.43429
26.85243	-8.28341	5.43429
26.85661	-8.28341	5.43429
26.86080	-8.28341	5.43429
26.86498	-8.28341	5.43429
26.86927	-8.30539	5.43429
26.87347	-8.30539	5.43429
26.87766	-8.30539	5.43429
26.88184	-8.30539	5.43429
26.88603	-8.30539	5.43429
26.89022	-8.32736	5.43429
26.89440	-8.32736	5.43429
26.89879	-8.32736	5.43429
26.90300	-8.32736	5.43429
26.90719	-8.34933	5.43429
26.91137	-8.34933	5.43429
26.91556	-8.34933	5.43429
26.91974	-8.34933	5.43429
26.92393	-8.37131	5.43429
26.92820	-8.37131	5.43429
26.93246	-8.37131	5.43429
26.93665	-8.39328	5.43429
26.94094	-8.39328	5.43429
26.94512	-8.39328	5.43429
26.94930	-8.39328	5.43429
26.95349	-8.39328	5.43429
26.95774	-8.39328	5.43429
26.96201	-8.41525	5.43429
26.96621	-8.41525	5.43429
26.97040	-8.43722	5.43429
26.97459	-8.43722	5.43429
26.97877	-8.43722	5.43429
26.98295	-8.43722	5.43429
26.98714	-8.45920	5.43429
26.99143	-8.45920	5.43429
26.99563	-8.45920	5.43429
26.99982	-8.45920	5.43429
27.00400	-8.45920	5.43429
27.00819	-8.45920	5.43429
27.01238	-8.48117	5.43429
27.01656	-8.48117	5.43429
27.02095	-8.48117	5.43429
27.02516	-8.48117	5.43429
27.02935	-8.48117	5.43429
27.03353	-8.50314	5.43429
27.03772	-8.50314	5.43429
27.04200	-8.50314	5.43429
27.04619	-8.50314	5.43429
27.05049	-8.50314	5.43429
27.05474	-8.50314	5.43429
27.05893	-8.52511	5.43429
27.06312	-8.52511	5.43429
27.06730	-8.52511	5.43429
27.07149	-8.52511	5.43429
27.07567	-8.52511	5.43429
27.07992	-8.54709	5.43429
27.08419	-8.54709	5.43429
27.08839	-8.54709	5.43429
27.09258	-8.54709	5.43429
27.09676	-8.54709	5.43429
27.10096	-8.54709	5.43429
27.10515	-8.54709	5.43429
27.10933	-8.56906	5.43429
27.11362	-8.56906	5.43429
27.11782	-8.56906	5.43429
27.12201	-8.56906	5.43429
27.12619	-8.56906	5.43429
27.13038	-8.56906	5.43429
27.13457	-8.59103	5.43429
27.13875	-8.59103	5.43429
27.14324	-8.59103	5.43429
27.14744	-8.59103	5.43429
27.15163	-8.59103	5.43429
27.15581	-8.59103	5.43429
27.16000	-8.59103	5.43429
27.16418	-8.61300	5.43429
27.16836	-8.61300	5.43429
27.17263	-8.61300	5.43429
27.17688	-8.61300	5.43429
27.18107	-8.61300	5.43429
27.18526	-8.61300	5.43429
27.18944	-8.61300	5.43429
27.19363	-8.61300	5.43429
27.19782	-8.63498	5.43429
27.20206	-8.63498	5.43429
27.20635	-8.63498	5.43429
27.21055	-8.63498	5.43429
27.21473	-8.63498	5.43429
27.21892	-8.63498	5.43429
27.22311	-8.65695	5.43429
27.22729	-8.65695	5.43429
27.23147	-8.65695	5.43429
27.23578	-8.65695	5.43429
27.23998	-8.65695	5.43429
27.24427	-8.65695	5.43429
27.24846	-8.65695	5.43429
27.25265	-8.67892	5.43429
27.25684	-8.67892	5.43429
27.26102	-8.67892	5.43429
27.26544	-8.67892	5.43429
27.26965	-8.67892	5.43429
27.27384	-8.70089	5.43429
27.27802	-8.67892	5.43429
27.28221	-8.67892	5.43429
27.28640	-8.70089	5.43429
27.29058	-8.70089	5.43429
27.29486	-8.70089	5.43429
27.29912	-8.70089	5.43429
27.30331	-8.70089	5.43429
27.30750	-8.70089	5.43429
27.31168	-8.72287	5.43429
27.31587	-8.72287	5.43429
27.32005	-8.72287	5.43429
27.32431	-8.72287	5.43429
27.32859	-8.72287	5.43429
27.33280	-8.72287	5.43429
27.33698	-8.72287	5.43429
27.34117	-8.72287	5.43429
27.34546	-8.72287	5.43429
27.34964	-8.72287	5.43429
27.35383	-8.74484	5.43429
27.35812	-8.74484	5.43429
27.36234	-8.74484	5.43429
27.36653	-8.74484	5.43429
27.37072	-8.74484	5.43429
27.37490	-8.74484	5.43429
27.37909	-8.74484	5.43429
27.38327	-8.74484	5.43429
27.38769	-8.74484	5.43429
27.39191	-8.74484	5.43429
27.39609	-8.74484	5.43429
27.40028	-8.76681	5.43429
27.40447	-8.76681	5.43429
27.40865	-8.76681	5.43429
27.41287	-8.74484	5.43429
27.41715	-8.76681	5.43429
27.42141	-8.76681	5.43429
27.42561	-8.76681	5.43429
27.42980	-8.76681	5.43429
27.43398	-8.76681	5.43429
27.43817	-8.76681	5.43429
27.44239	-8.76681	5.43429
27.44678	-8.76681	5.43429
27.45106	-8.76681	5.43429
27.45525	-8.76681	5.43429
27.45944	-8.76681	5.43429
27.46363	-8.76681	5.43429
27.46781	-8.76681	5.43429
27.47200	-8.76681	5.43429
27.47618	-8.76681	5.43429
27.48048	-8.76681	5.43429
27.48469	-8.76681	5.43429
27.48887	-8.76681	5.43429
27.49306	-8.76681	5.43429
27.49724	-8.76681	5.43429
27.50142	-8.76681	5.43429
27.50561	-8.76681	5.43429
27.51001	-8.76681	5.43429
27.51422	-8.76681	5.43429
27.51841	-8.76681	5.43429
27.52259	-8.76681	5.43429
27.52678	-8.76681	5.43429
27.53096	-8.74484	5.43429
27.53515	-8.74484	5.43429
27.53942	-8.76681	5.43429
27.54368	-8.76681	5.43429
27.54798	-8.74484	5.43429
27.55216	-8.76681	5.43429
27.55635	-8.74484	5.43429
27.56053	-8.74484	5.43429
27.56472	-8.74484	5.43429
27.56897	-8.76681	5.43429
27.57324	-8.74484	5.43429
27.57744	-8.74484	5.43429
27.58164	-8.74484	5.43429
27.58583	-8.74484	5.43429
27.59001	-8.74484	5.43429
27.59420	-8.74484	5.43429
27.59839	-8.74484	5.43429
27.60268	-8.74484	5.43429
27.60688	-8.74484	5.43429
27.61106	-8.74484	5.43429
27.61525	-8.74484	5.43429
27.61944	-8.74484	5.43429
27.62362	-8.72287	5.43429
27.62780	-8.74484	5.43429
27.63219	-8.72287	5.43429
27.63640	-8.72287	5.43429
27.64059	-8.72287	5.43429
27.64477	-8.72287	5.43429
27.64906	-8.72287	5.43429
27.65324	-8.72287	5.43429
27.65743	-8.72287	5.43429
27.66170	-8.72287	5.43429
27.66595	-8.72287	5.43429
27.67015	-8.70089	5.43429
27.67434	-8.70089	5.43429
27.67853	-8.70089	5.43429
27.68272	-8.70089	5.43429
27.68690	-8.70089	5.43429
27.69116	-8.70089	5.43429
27.69543	-8.70089	5.43429
27.69963	-8.70089	5.43429
27.70382	-8.70089	5.43429
27.70801	-8.70089	5.43429
27.71219	-8.70089	5.43429
27.71637	-8.67892	5.43429
27.72056	-8.67892	5.43429
27.72485	-8.67892	5.43429
27.72905	-8.67892	5.43429
27.73324	-8.67892	5.43429
27.73743	-8.67892	5.43429
27.74161	-8.67892	5.43429
27.74580	-8.67892	5.43429
27.75008	-8.67892	5.43429
27.75449	-8.67892	5.43429
27.75870	-8.67892	5.43429
27.76288	-8.65695	5.43429
27.76707	-8.65695	5.43429
27.77126	-8.65695	5.43429
27.77544	-8.65695	5.43429
27.77963	-8.65695	5.43429
27.78390	-8.65695	5.43429
27.78815	-8.65695	5.43429
27.79234	-8.63498	5.43429
27.79653	-8.63498	5.43429
27.80071	-8.63498	5.43429
27.80490	-8.63498	5.43429
27.80908	-8.63498	5.43429
27.81334	-8.63498	5.43429
27.81761	-8.63498	5.43429
27.82181	-8.61300	5.43429
27.82599	-8.61300	5.43429
27.83018	-8.61300	5.43429
27.83437	-8.61300	5.43429
27.83856	-8.61300	5.43429
27.84274	-8.61300	5.43429
27.84703	-8.61300	5.43429
27.85133	-8.61300	5.43429
27.85552	-8.59103	5.43429
27.85971	-8.59103	5.43429
27.86389	-8.59103	5.43429
27.86808	-8.59103	5.43429
27.87226	-8.56906	5.43429
27.87665	-8.56906	5.43429
27.88086	-8.56906	5.43429
27.88506	-8.56906	5.43429
27.88924	-8.56906	5.43429
27.89343	-8.56906	5.43429
27.89761	-8.56906	5.43429
27.90179	-8.54709	5.43429
27.90607	-8.54709	5.43429
27.91034	-8.54709	5.43429
27.91453	-8.54709	5.43429
27.91872	-8.54709	5.43429
27.92290	-8.52511	5.43429
27.92709	-8.52511	5.43429
27.93127	-8.52511	5.43429
27.93552	-8.52511	5.43429
27.93979	-8.52511	5.43429
27.94399	-8.52511	5.43429
27.94817	-8.52511	5.43429
27.95246	-8.50314	5.43429
27.95665	-8.50314	5.43429
27.96083	-8.50314	5.43429
27.96502	-8.50314	5.43429
27.96931	-8.48117	5.43429
27.97351	-8.50314	5.43429
27.97770	-8.48117	5.43429
27.98188	-8.48117	5.43429
27.98607	-8.48117	5.43429
27.99026	-8.48117	5.43429
27.99440	-8.48117	5.43429
27.99877	-8.48117	5.43429
28.00298	-8.48117	5.43429
28.00716	-8.45920	5.43429
28.01135	-8.45920	5.43429
28.01554	-8.45920	5.43429
28.01972	-8.45920	5.43429
28.02391	-8.43722	5.43429
28.02818	-8.43722	5.43429
28.03244	-8.43722	5.43429
28.03663	-8.43722	5.43429
28.04082	-8.43722	5.43429
28.04500	-8.41525	5.43429
28.04919	-8.41525	5.43429
28.05347	-8.41525	5.43429
28.05774	-8.41525	5.43429
28.06201	-8.41525	5.43429
28.06622	-8.39328	5.43429
28.07040	-8.39328	5.43429
28.07459	-8.39328	5.43429
28.07877	-8.39328	5.43429
28.08295	-8.37131	5.43429
28.08714	-8.37131	5.43429
28.09143	-8.37131	5.43429
28.09563	-8.37131	5.43429
28.09982	-8.37131	5.43429
28.10401	-8.34933	5.43429
28.10819	-8.34933	5.43429
28.11238	-8.34933	5.43429
28.11656	-8.34933	5.43429
28.12096	-8.34933	5.43429
28.12516	-8.34933	5.43429
28.12935	-8.32736	5.43429
28.13354	-8.32736	5.43429
28.13772	-8.32736	5.43429
28.14191	-8.32736	5.43429
28.14609	-8.32736	5.43429
28.15039	-8.30539	5.43429
28.15475	-8.30539	5.43429
28.15894	-8.30539	5.43429
28.16313	-8.30539	5.43429
28.16732	-8.30539	5.43429
28.17150	-8.28341	5.43429
28.17568	-8.28341	5.43429
28.17993	-8.28341	5.43429
28.18420	-8.26144	5.43429
28.18840	-8.26144	5.43429
28.19258	-8.26144	5.43429
28.19677	-8.26144	5.43429
28.20095	-8.26144	5.43429
28.20514	-8.26144	5.43429
28.20932	-8.23947	5.43429
28.21361	-8.23947	5.43429
28.21781	-8.23947	5.43429
28.22200	-8.23947	5.43429
28.22618	-8.21750	5.43429
28.23038	-8.21750	5.43429
28.23456	-8.21750	5.43429
28.23875	-8.21750	5.43429
28.24316	-8.21750	5.43429
28.24738	-8.19552	5.43429
28.25157	-8.19552	5.43429
28.25586	-8.19552	5.43429
28.26005	-8.17355	5.43429
28.26423	-8.19552	5.43429
28.26841	-8.19552	5.43429
28.27269	-8.17355	5.43429
28.27694	-8.17355	5.43429
28.28114	-8.17355	5.43429
28.28533	-8.15158	5.43429
28.28953	-8.15158	5.43429
28.29371	-8.15158	5.43429
28.29789	-8.15158	5.43429
28.30215	-8.15158	5.43429
28.30643	-8.15158	5.43429
28.31064	-8.15158	5.43429
28.31484	-8.15158	5.43429
28.31902	-8.12961	5.43429
28.32321	-8.12961	5.43429
28.32739	-8.12961	5.43429
28.33157	-8.12961	5.43429
28.33587	-8.12961	5.43429
28.34007	-8.12961	5.43429
28.34425	-8.10763	5.43429
28.34844	-8.10763	5.43429
28.35263	-8.12961	5.43429
28.35691	-8.10763	5.43429
28.36110	-8.12961	5.43429
28.36548	-8.10763	5.43429
28.36969	-8.10763	5.43429
28.37388	-8.10763	5.43429
28.37806	-8.10763	5.43429
28.38225	-8.10763	5.43429
28.38641	-8.10763	5.43429
28.39060	-8.10763	5.43429
28.39487	-8.10763	5.43429
28.39912	-8.10763	5.43429
28.40332	-8.10763	5.43429
28.40750	-8.08566	5.43429
28.41172	-8.08566	5.43429
28.41591	-8.08566	5.43429
28.42010	-8.08566	5.43429
28.42437	-8.08566	5.43429
28.42865	-8.08566	5.43429
28.43285	-8.08566	5.43429
28.43704	-8.08566	5.43429
28.44123	-8.08566	5.43429
28.44542	-8.08566	5.43429
28.44960	-8.08566	5.43429
28.45379	-8.08566	5.43429
28.45819	-8.08566	5.43429
28.46240	-8.08566	5.43429
28.46659	-8.08566	5.43429
28.47078	-8.08566	5.43429
28.47496	-8.08566	5.43429
28.47914	-8.08566	5.43429
28.48333	-8.06369	5.43429
28.48772	-8.08566	5.43429
28.49194	-8.06369	5.43429
28.49613	-8.08566	5.43429
28.50031	-8.06369	5.43429
28.50450	-8.06369	5.43429
28.50869	-8.06369	5.43429
28.51287	-8.08566	5.43429
28.51715	-8.06369	5.43429
28.52140	-8.08566	5.43429
28.52560	-8.06369	5.43429
28.52978	-8.06369	5.43429
28.53397	-8.06369	5.43429
28.53816	-8.06369	5.43429
28.54235	-8.06369	5.43429
28.54661	-8.06369	5.43429
28.55089	-8.06369	5.43429
28.55509	-8.06369	5.43429
28.55938	-8.06369	5.43429
28.56356	-8.06369	5.43429
28.56775	-8.06369	5.43429
28.57193	-8.06369	5.43429
28.57612	-8.06369	5.43429
28.58041	-8.06369	5.43429
28.58462	-8.06369	5.43429
28.58880	-8.06369	5.43429
28.59300	-8.06369	5.43429
28.59718	-8.06369	5.43429
28.60137	-8.04172	5.43429
28.60555	-8.06369	5.43429
28.60994	-8.06369	5.43429
28.61415	-8.04172	5.43429
28.61834	-8.04172	5.43429
28.62253	-8.04172	5.43429
28.62671	-8.04172	5.43429
28.63090	-8.04172	5.43429
28.63508	-8.04172	5.43429
28.63935	-8.04172	5.43429
28.64361	-8.04172	5.43429
28.64781	-8.04172	5.43429
28.65199	-8.01974	5.43429
28.65618	-8.01974	5.43429
28.66047	-8.01974	5.43429
28.66465	-8.01974	5.43429
28.66890	-8.01974	5.43429
28.67318	-8.01974	5.43429
28.67737	-8.01974	5.43429
28.68156	-8.01974	5.43429
28.68575	-8.01974	5.43429
28.68993	-8.01974	5.43429
28.69412	-7.99777	5.43429
28.69832	-8.01974	5.43429
28.70261	-7.99777	5.43429
28.70681	-7.99777	5.43429
28.71100	-8.01974	5.43429
28.71519	-7.99777	5.43429
28.71937	-7.99777	5.43429
28.72356	-7.99777	5.43429
28.72774	-7.99777	5.43429
28.73213	-7.99777	5.43429
28.73634	-7.99777	5.43429
28.74052	-7.99777	5.43429
28.74471	-7.99777	5.43429
28.74889	-7.97580	5.43429
28.75308	-7.97580	5.43429
28.75726	-7.97580	5.43429
28.76168	-7.97580	5.43429
28.76592	-7.97580	5.43429
28.77011	-7.97580	5.43429
28.77430	-7.97580	5.43429
28.77849	-7.97580	5.43429
28.78270	-7.97580	5.43429
28.78688	-7.95382	5.43429
28.79114	-7.95382	5.43429
28.79541	-7.95382	5.43429
28.79961	-7.95382	5.43429
28.80380	-7.95382	5.43429
28.80799	-7.95382	5.43429
28.81218	-7.95382	5.43429
28.81636	-7.95382	5.43429
28.82055	-7.95382	5.43429
28.82484	-7.93185	5.43429
28.82905	-7.93185	5.43429
28.83324	-7.93185	5.43429
28.83743	-7.93185	5.43429
28.84161	-7.93185	5.43429
28.84579	-7.93185	5.43429
28.84998	-7.93185	5.43429
28.85439	-7.93185	5.43429
28.85860	-7.90988	5.43429
28.86289	-7.90988	5.43429
28.86707	-7.90988	5.43429
28.87126	-7.90988	5.43429
28.87544	-7.90988	5.43429
28.87963	-7.90988	5.43429
28.88390	-7.90988	5.43429
28.88815	-7.90988	5.43429
28.89234	-7.90988	5.43429
28.89652	-7.90988	5.43429
28.90071	-7.90988	5.43429
28.90489	-7.90988	5.43429
28.90908	-7.88791	5.43429
28.91333	-7.88791	5.43429
28.91760	-7.88791	5.43429
28.92180	-7.88791	5.43429
28.92598	-7.88791	5.43429
28.93017	-7.88791	5.43429
28.93436	-7.88791	5.43429
28.93855	-7.88791	5.43429
28.94273	-7.88791	5.43429
28.94702	-7.86593	5.43429
28.95122	-7.86593	5.43429
28.95541	-7.88791	5.43429
28.95959	-7.88791	5.43429
28.96388	-7.86593	5.43429
28.96807	-7.88791	5.43429
28.97225	-7.86593	5.43429
28.97664	-7.88791	5.43429
28.98085	-7.88791	5.43429
28.98504	-7.86593	5.43429
28.98922	-7.86593	5.43429
28.99341	-7.86593	5.43429
28.99760	-7.86593	5.43429
29.00179	-7.86593	5.43429
29.00607	-7.86593	5.43429
29.01034	-7.86593	5.43429
29.01453	-7.86593	5.43429
29.01872	-7.86593	5.43429
29.02291	-7.86593	5.43429
29.02709	-7.86593	5.43429
29.03127	-7.86593	5.43429
29.03553	-7.86593	5.43429
29.03980	-7.86593	5.43429
29.04400	-7.86593	5.43429
29.04819	-7.86593	5.43429
29.05237	-7.86593	5.43429
29.05656	-7.86593	5.43429
29.06074	-7.86593	5.43429
29.06503	-7.86593	5.43429
29.06932	-7.86593	5.43429
29.07352	-7.86593	5.43429
29.07771	-7.86593	5.43429
29.08189	-7.86593	5.43429
29.08608	-7.86593	5.43429
29.09026	-7.86593	5.43429
29.09440	-7.86593	5.43429
29.09879	-7.86593	5.43429
29.10299	-7.86593	5.43429
29.10718	-7.86593	5.43429
29.11136	-7.86593	5.43429
29.11555	-7.86593	5.43429
29.11974	-7.86593	5.43429
29.12392	-7.86593	5.43429
29.12819	-7.86593	5.43429
29.13244	-7.86593	5.43429
29.13663	-7.86593	5.43429
29.14082	-7.86593	5.43429
29.14500	-7.86593	5.43429
29.14918	-7.88791	5.43429
29.15337	-7.86593	5.43429
29.15762	-7.88791	5.43429
29.16189	-7.88791	5.43429
29.16620	-7.86593	5.43429
29.17039	-7.88791	5.43429
29.17458	-7.88791	5.43429
29.17876	-7.88791	5.43429
29.18295	-7.88791	5.43429
29.18713	-7.88791	5.43429
29.19142	-7.88791	5.43429
29.19564	-7.88791	5.43429
29.19982	-7.90988	5.43429
29.20401	-7.90988	5.43429
29.20820	-7.90988	5.43429
29.21238	-7.90988	5.43429
29.21656	-7.90988	5.43429
29.22095	-7.90988	5.43429
29.22515	-7.93185	5.43429
29.22934	-7.90988	5.43429
29.23353	-7.90988	5.43429
29.23771	-7.93185	5.43429
29.24190	-7.93185	5.43429
29.24609	-7.90988	5.43429
29.25039	-7.93185	5.43429
29.25465	-7.93185	5.43429
29.25884	-7.93185	5.43429
29.26303	-7.93185	5.43429
29.26731	-7.93185	5.43429
29.27150	-7.93185	5.43429
29.27568	-7.93185	5.43429
29.27995	-7.93185	5.43429
29.28422	-7.93185	5.43429
29.28841	-7.95382	5.43429
29.29260	-7.95382	5.43429
29.29679	-7.93185	5.43429
29.30098	-7.95382	5.43429
29.30517	-7.95382	5.43429
29.30935	-7.95382	5.43429
29.31365	-7.95382	5.43429
29.31785	-7.95382	5.43429
29.32204	-7.95382	5.43429
29.32622	-7.95382	5.43429
29.33040	-7.95382	5.43429
29.33459	-7.97580	5.43429
29.33877	-7.95382	5.43429
29.34316	-7.97580	5.43429
29.34737	-7.97580	5.43429
29.35156	-7.97580	5.43429
29.35574	-7.97580	5.43429
29.35993	-7.97580	5.43429
29.36411	-7.97580	5.43429
29.36840	-7.97580	5.43429
29.37266	-7.97580	5.43429
29.37694	-7.97580	5.43429
29.38115	-7.97580	5.43429
29.38533	-7.99777	5.43429
29.38952	-7.99777	5.43429
29.39370	-7.99777	5.43429
29.39789	-7.99777	5.43429
29.40214	-7.99777	5.43429
29.40643	-7.99777	5.43429
29.41063	-7.99777	5.43429
29.41485	-7.99777	5.43429
29.41904	-7.99777	5.43429
29.42322	-7.99777	5.43429
29.42741	-7.99777	5.43429
29.43160	-7.99777	5.43429
29.43589	-7.99777	5.43429
29.44009	-7.99777	5.43429
29.44428	-7.99777	5.43429
29.44847	-8.01974	5.43429
29.45265	-8.01974	5.43429
29.45684	-8.01974	5.43429
29.46102	-8.01974	5.43429
29.46541	-8.01974	5.43429
29.46972	-8.01974	5.43429
29.47391	-8.01974	5.43429
29.47810	-8.01974	5.43429
29.48230	-8.01974	5.43429
29.48648	-8.01974	5.43429
29.49067	-8.01974	5.43429
29.49494	-8.01974	5.43429
29.49920	-8.01974	5.43429
29.50339	-8.04172	5.43429
29.50758	-8.04172	5.43429
29.51176	-8.01974	5.43429
29.51595	-8.04172	5.43429
29.52014	-8.04172	5.43429
29.52440	-8.01974	5.43429
29.52867	-8.01974	5.43429
29.53288	-8.04172	5.43429
29.53706	-8.04172	5.43429
29.54125	-8.04172	5.43429
29.54543	-8.04172	5.43429
29.54962	-8.04172	5.43429
29.55380	-8.04172	5.43429
29.55810	-8.04172	5.43429
29.56231	-8.04172	5.43429
29.56650	-8.04172	5.43429
29.57079	-8.04172	5.43429
29.57497	-8.04172	5.43429
29.57916	-8.06369	5.43429
29.58335	-8.06369	5.43429
29.58774	-8.06369	5.43429
29.59195	-8.06369	5.43429
29.59614	-8.06369	5.43429
29.60033	-8.06369	5.43429
29.60451	-8.06369	5.43429
29.60869	-8.06369	5.43429
29.61288	-8.08566	5.43429
29.61716	-8.08566	5.43429
29.62142	-8.08566	5.43429
29.62562	-8.08566	5.43429
29.62981	-8.08566	5.43429
29.63399	-8.08566	5.43429
29.63818	-8.08566	5.43429
29.64237	-8.10763	5.43429
29.64663	-8.10763	5.43429
29.65090	-8.10763	5.43429
29.65510	-8.10763	5.43429
29.65928	-8.10763	5.43429
29.66347	-8.10763	5.43429
29.66765	-8.10763	5.43429
29.67194	-8.10763	5.43429
29.67613	-8.12961	5.43429
29.68042	-8.12961	5.43429
29.68462	-8.12961	5.43429
29.68881	-8.12961	5.43429
29.69300	-8.12961	5.43429
29.69719	-8.15158	5.43429
29.70137	-8.12961	5.43429
29.70556	-8.15158	5.43429
29.70995	-8.15158	5.43429
29.71416	-8.15158	5.43429
29.71836	-8.15158	5.43429
29.72254	-8.17355	5.43429
29.72673	-8.17355	5.43429
29.73091	-8.17355	5.43429
29.73510	-8.17355	5.43429
29.73937	-8.17355	5.43429
29.74362	-8.17355	5.43429
29.74782	-8.17355	5.43429
29.75201	-8.19552	5.43429
29.75619	-8.19552	5.43429
29.76038	-8.19552	5.43429
29.76456	-8.19552	5.43429
29.76881	-8.19552	5.43429
29.77319	-8.19552	5.43429
29.77739	-8.21750	5.43429
29.78157	-8.19552	5.43429
29.78576	-8.21750	5.43429
29.78994	-8.21750	5.43429
29.79413	-8.21750	5.43429
29.79832	-8.21750	5.43429
29.80262	-8.23947	5.43429
29.80683	-8.21750	5.43429
29.81102	-8.23947	5.43429
29.81520	-8.23947	5.43429
29.81939	-8.23947	5.43429
29.82357	-8.23947	5.43429
29.82776	-8.23947	5.43429
29.83215	-8.23947	5.43429
29.83636	-8.26144	5.43429
29.84054	-8.23947	5.43429
29.84473	-8.23947	5.43429
29.84891	-8.26144	5.43429
29.85310	-8.26144	5.43429
29.85728	-8.26144	5.43429
29.86156	-8.26144	5.43429
29.86582	-8.26144	5.43429
29.87001	-8.26144	5.43429
29.87432	-8.26144	5.43429
29.87850	-8.26144	5.43429
29.88268	-8.26144	5.43429
29.88687	-8.28341	5.43429
29.89112	-8.28341	5.43429
29.89541	-8.28341	5.43429
29.89960	-8.28341	5.43429
29.90378	-8.28341	5.43429
29.90798	-8.28341	5.43429
29.91216	-8.28341	5.43429
29.91634	-8.28341	5.43429
29.92053	-8.28341	5.43429
29.92482	-8.28341	5.43429
29.92902	-8.28341	5.43429
29.93321	-8.30539	5.43429
29.93739	-8.30539	5.43429
29.94157	-8.30539	5.43429
29.94576	-8.30539	5.43429
29.94994	-8.30539	5.43429
29.95439	-8.30539	5.43429
29.95859	-8.30539	5.43429
29.96278	-8.30539	5.43429
29.96697	-8.30539	5.43429
29.97115	-8.32736	5.43429
29.97544	-8.30539	5.43429
29.97962	-8.30539	5.43429
29.98388	-8.30539	5.43429
29.98815	-8.30539	5.43429
29.99234	-8.30539	5.43429
29.99653	-8.30539	5.43429
