Time (s)   Thrust (N)   RPM  Input
0.00022	4.02924	5202.61000	7.00000
0.03348	4.01293	5171.53500	7.00000
0.06809	3.98167	5076.34900	7.00000
0.10276	3.55260	5018.85800	7.00000
0.13744	3.56642	4955.35700	7.00000
0.17216	3.60209	4852.94100	7.00000
0.20686	3.56208	4817.39400	7.00000
0.24155	3.43693	4787.53800	7.00000
0.27628	3.43419	4790.39600	7.00000
0.31096	3.36178	4713.22400	7.00000
0.34568	3.44293	4739.58300	7.00000
0.38038	3.31837	4696.07400	7.00000
0.41508	3.47201	4650.34300	7.00000
0.44977	3.36062	4667.49200	7.00000
0.48447	3.50550	4687.50000	7.00000
0.51919	3.39669	4678.81900	7.00000
0.55388	3.35922	4650.34300	7.00000
0.58860	3.32601	4670.13900	7.00000
0.62329	3.38787	4661.45800	7.00000
0.65799	3.31698	4687.50000	7.00000
0.69270	3.32115	4658.56500	7.00000
0.72740	3.37371	4652.77800	7.00000
0.76212	3.29188	4678.81900	7.00000
0.79682	3.28777	4646.99000	7.00000
0.83154	3.34475	4675.92600	7.00000
0.86624	3.34778	4705.07800	7.00000
0.90092	3.35586	4702.14800	7.00000
0.93563	3.36037	4675.92600	7.00000
0.97033	3.37812	4644.09700	7.00000
1.00504	3.33803	4699.21900	7.00000
1.03974	3.29900	4667.24500	7.00000
1.07444	3.35834	4638.31000	7.00000
1.10916	3.47922	4696.28900	7.00000
1.14387	3.41904	4670.13900	7.00000
1.17857	3.37892	4632.52300	7.00000
1.21327	3.34269	4690.42900	7.00000
1.24798	3.40351	4658.56500	7.00000
1.28268	3.38338	4690.42900	7.00000
1.31738	3.35355	4655.67100	7.00000
1.35208	3.34719	4693.35900	7.00000
1.38678	3.34099	4681.64000	7.00000
1.42149	3.35017	4655.67100	7.00000
1.45614	3.28981	4687.50000	7.00000
1.49090	3.35492	4626.73600	7.00000
1.52561	3.34664	4658.56500	7.00000
1.56030	3.37367	4629.62900	7.00000
1.59501	3.34449	4687.50000	7.00000
1.62972	3.35329	4658.56500	7.00000
1.66441	3.37199	4632.52300	7.00000
1.69912	3.33697	4687.50000	7.00000
1.73383	3.39869	4649.88400	7.00000
1.76853	3.35958	4684.57000	7.00000
1.80324	3.36433	4620.94900	7.00000
1.83794	3.35470	4655.67100	7.00000
1.87266	3.36234	4620.94900	7.00000
1.99540	3.30583	4681.64000	7.00000
2.03014	3.33333	4652.77800	7.00000
2.06485	3.32368	4687.50000	7.00000
2.09955	3.31582	4629.62900	7.00000
2.13425	3.29726	4658.56500	7.00000
2.16896	3.33309	4632.52300	7.00000
2.20366	3.33037	4690.42900	7.00000
2.23837	3.33884	4661.45800	7.00000
2.27306	3.34073	4632.52300	7.00000
2.30777	3.32199	4693.35900	7.00000
2.34247	3.33020	4641.20300	7.00000
2.37718	3.32325	4696.28900	7.00000
2.41188	3.31917	4661.45800	7.00000
2.44659	3.32956	4638.31000	7.00000
2.48129	3.33198	4644.09700	7.00000
2.51600	3.31314	4667.24500	7.00000
2.55071	3.31819	4638.31000	7.00000
2.58541	3.32157	4644.09700	7.00000
2.62011	3.30936	4670.13900	7.00000
2.65483	3.32498	4708.00800	7.00000
2.68955	3.31350	4702.14800	7.00000
2.76780	3.32512	4675.92600	7.00000
2.80250	3.30746	4646.99000	7.00000
2.83721	3.31681	4649.88400	7.00000
2.87190	3.31714	4681.71300	7.00000
2.90660	3.32097	4641.20300	7.00000
2.94131	3.30721	4710.93700	7.00000
2.97602	3.31032	4670.13900	7.00000
3.01072	3.32057	4708.00800	7.00000
3.04543	3.31043	4675.92600	7.00000
3.08013	3.31170	4655.67100	7.00000
3.11483	3.30926	4655.67100	7.00000
3.14953	3.27626	4624.61800	7.00000
3.18426	3.29304	4661.45800	7.00000
3.21894	3.25750	4661.45800	7.00000
3.25366	3.25933	4693.28700	7.00000
3.28835	3.28880	4670.13900	7.00000
3.32307	3.29090	4728.51500	7.00000
3.35778	3.28856	4707.75500	7.00000
3.39247	3.27933	4678.81900	7.00000
3.42716	3.26703	4653.20100	7.00000
3.46188	3.29172	4681.71300	7.00000
3.49659	3.29018	4687.50000	7.00000
3.53128	3.28213	4656.05900	7.00000
3.56601	3.28268	4749.02300	7.00000
3.60069	3.27634	4696.18000	7.00000
3.63540	3.28768	4722.22200	7.00000
3.67010	3.26501	4699.07400	7.00000
3.70481	3.29942	4699.07400	7.00000
3.73953	3.21032	4730.90300	7.00000
3.77423	3.30660	4701.96700	7.00000
3.80892	3.29389	4728.00900	7.00000
3.84363	3.25723	4699.07400	7.00000
3.87835	3.28120	4701.96700	7.00000
3.91304	3.29288	4678.92500	7.00000
3.94776	3.29717	4699.07400	7.00000
3.98247	3.28750	4701.96700	7.00000
4.01715	3.30626	4667.49200	7.00000
4.05186	3.30410	4699.07400	7.00000
4.08656	3.30190	4693.28700	7.00000
4.12128	3.28691	4713.54100	7.00000
4.15597	3.28367	4687.50000	7.00000
4.19069	3.28157	4716.43500	7.00000
4.22538	3.28462	4690.39300	7.00000
4.26009	3.27571	4749.02300	7.00000
4.29480	3.28768	4670.35000	7.00000
4.32949	3.28154	4693.28700	7.00000
4.36420	3.31508	4696.18000	7.00000
4.39890	3.30055	4716.43500	7.00000
4.43362	3.29614	4699.07400	7.00000
4.46833	3.28111	4693.28700	7.00000
4.50303	3.31044	4661.77600	7.00000
4.53772	3.26004	4687.50000	7.00000
4.57242	3.32463	4713.54100	7.00000
4.60715	3.30218	4684.60600	7.00000
4.64184	3.29747	4746.09400	7.00000
4.67655	3.30765	4661.77600	7.00000
4.71124	3.31218	4687.50000	7.00000
4.74596	3.30109	4687.50000	7.00000
4.78065	3.21390	4650.34300	7.00000
4.81537	3.30042	4678.81900	7.00000
4.85008	3.28804	4681.71300	7.00000
4.88478	3.30596	4653.20100	7.00000
4.91948	3.28536	4687.50000	7.00000
4.95417	3.26580	4710.64800	7.00000
4.98888	3.30917	4687.50000	7.00000
5.02402	3.19749	4749.02300	7.50000
5.14237	3.23567	4722.22200	7.50000
5.16253	3.41150	4846.54000	7.50000
5.19717	3.76218	5094.28800	7.50000
5.23186	3.90476	5096.35400	7.50000
5.26658	4.02338	5200.03400	7.50000
5.30125	3.90890	5235.22400	7.50000
5.33597	4.03519	5239.41500	7.50000
5.37066	4.04506	5289.81900	7.50000
5.40538	4.17396	5275.93100	7.50000
5.44009	4.18130	5332.66100	7.50000
5.47478	4.17585	5318.31800	7.50000
5.50951	4.23691	5313.33100	7.50000
5.54419	3.99557	5289.47300	7.50000
5.57890	4.08053	5345.74400	7.50000
5.61360	4.17245	5318.31800	7.50000
5.64831	4.13231	5350.73100	7.50000
5.68302	4.02729	5315.82400	7.50000
5.71772	4.24408	5348.23800	7.50000
5.75243	4.22308	5294.40700	7.50000
5.78712	4.21485	5313.33100	7.50000
5.82182	4.25364	5348.23800	7.50000
5.85654	4.23475	5315.82400	7.50000
5.89125	4.27510	5348.23800	7.50000
5.92596	4.30861	5318.31800	7.50000
6.00483	4.32169	5318.31800	7.50000
6.03952	4.17862	5350.73100	7.50000
6.07421	4.13602	5318.31800	7.50000
6.10892	4.06644	5355.71800	7.50000
6.14364	4.19418	5294.40700	7.50000
6.17833	3.98782	5323.30400	7.50000
6.21305	3.88273	5304.27600	7.50000
6.24774	3.89818	5330.78400	7.50000
6.28244	4.25547	5358.21100	7.50000
6.31715	4.31737	5299.34200	7.50000
6.35187	4.27781	5325.79800	7.50000
6.38656	4.31977	5299.34200	7.50000
6.42126	4.18937	5330.78400	7.50000
6.45597	4.19412	5363.19800	7.50000
6.49068	4.15641	5306.74300	7.50000
6.52537	4.18503	5335.77100	7.50000
6.56008	4.16365	5363.19800	7.50000
6.59479	4.06927	5333.27800	7.50000
6.62950	4.19407	5309.21000	7.50000
6.66420	4.13254	5333.27800	7.50000
6.69890	4.04769	5365.69100	7.50000
6.73361	4.26571	5306.74300	7.50000
6.76830	3.99883	5330.78400	7.50000
6.80305	3.90636	5358.21100	7.50000
6.83772	4.02969	5330.78400	7.50000
6.87243	4.15784	5306.74300	7.50000
6.90713	4.12194	5309.21000	7.50000
6.94184	4.23401	5333.27800	7.50000
6.97655	4.19095	5314.14500	7.50000
7.01123	4.20521	5343.25100	7.50000
7.04594	4.15349	5316.61200	7.50000
7.08064	3.97889	5314.14500	7.50000
7.11535	4.20250	5335.77100	7.50000
7.15006	3.98215	5314.14500	7.50000
7.18476	4.16986	5338.26400	7.50000
7.21948	4.21659	5368.18400	7.50000
7.25418	4.19031	5311.67700	7.50000
7.28889	4.25790	5348.23800	7.50000
7.32358	4.18571	5321.54600	7.50000
7.35827	4.01149	5348.23800	7.50000
7.39299	4.16517	5326.48000	7.50000
7.42768	4.20345	5348.23800	7.50000
7.46240	4.18500	5311.67700	7.50000
7.49709	3.99761	5380.65200	7.50000
7.53179	4.21588	5353.22400	7.50000
7.56652	4.27369	5331.41400	7.50000
7.60121	4.22134	5360.70500	7.50000
7.63591	4.19950	5336.34800	7.50000
7.67061	4.19817	5336.34800	7.50000
7.70532	4.17612	5365.69100	7.50000
7.74004	4.06792	5341.28300	7.50000
7.77473	4.14081	5373.17100	7.50000
7.80943	4.00687	5346.21700	7.50000
7.84409	4.07453	5346.21700	7.50000
7.87887	4.16498	5306.74300	7.50000
7.91354	4.09859	5343.75000	7.50000
7.94825	4.20334	5365.69100	7.50000
7.98296	4.11071	5341.28300	7.50000
8.01766	4.26699	5336.34800	7.50000
8.05237	4.21927	5355.71800	7.50000
8.08706	4.05843	5328.94700	7.50000
8.12178	4.26338	5358.21100	7.50000
8.15648	4.28263	5333.88100	7.50000
8.19121	4.23228	5333.88100	7.50000
8.22589	4.11011	5355.71800	7.50000
8.26060	4.22026	5331.41400	7.50000
8.29528	4.09614	5296.87500	7.50000
8.33002	4.01344	5331.41400	7.50000
8.36470	3.97263	5333.88100	7.50000
8.39940	4.23762	5301.80900	7.50000
8.43412	4.13072	5333.88100	7.50000
8.46882	4.12994	5353.22400	7.50000
8.50351	4.03182	5383.14400	7.50000
8.53822	3.88311	5328.94700	7.50000
8.57293	4.17473	5301.80900	7.50000
8.60763	4.23689	5331.41400	7.50000
8.64232	4.25010	5360.70500	7.50000
8.67703	4.27534	5331.41400	7.50000
8.71174	3.98356	5328.94700	7.50000
8.74645	4.05412	5296.87500	7.50000
8.78115	4.20372	5331.41400	7.50000
8.81585	4.22686	5353.22400	7.50000
8.85056	4.33569	5378.15800	7.50000
8.88526	4.19849	5350.73100	7.50000
8.91998	4.26785	5378.15800	7.50000
8.95466	4.28705	5316.61200	7.50000
8.98937	4.29564	5338.26400	7.50000
9.02407	4.28493	5314.14500	7.50000
9.05876	4.30705	5343.25100	7.50000
9.09347	4.29838	5321.54600	7.50000
9.12818	4.30823	5319.07900	7.50000
9.16288	4.27461	5289.47300	7.50000
9.19759	4.19292	5319.07900	7.50000
9.23230	4.31379	5340.75800	7.50000
9.26698	4.15186	5316.61200	7.50000
9.30170	4.31853	5375.66500	7.50000
9.33640	4.24358	5343.25100	7.50000
9.37110	4.20636	5319.07900	7.50000
9.40580	4.29396	5345.74400	7.50000
9.44052	4.33691	5316.61200	7.50000
9.47523	4.28985	5319.07900	7.50000
9.50992	4.33005	5335.77100	7.50000
9.54464	4.32151	5368.18400	7.50000
9.57934	4.33249	5277.13800	7.50000
9.61405	4.20166	5306.74300	7.50000
9.64873	4.31613	5368.18400	7.50000
9.68340	4.28531	5333.27800	7.50000
9.71815	4.29812	5314.14500	7.50000
9.75285	4.32125	5343.25100	7.50000
9.78757	4.33141	5335.77100	7.50000
9.86704	4.31947	5311.67700	7.50000
9.90176	4.30505	5279.60500	7.50000
9.98005	4.32830	5311.67700	7.50000
