Time (s)   roll (deg)   Delta
0.00033	-1.84543	11.27051
0.00443	-1.84543	11.27051
0.00849	-1.84543	11.27051
0.01255	-1.82345	11.27051
0.01660	-1.82345	11.27051
0.02066	-1.82345	11.27051
0.02472	-1.82345	11.27051
0.02877	-1.82345	11.27051
0.03284	-1.82345	11.27051
0.03689	-1.80148	11.27051
0.04095	-1.80148	11.27051
0.04501	-1.80148	11.27051
0.04907	-1.80148	11.27051
0.05313	-1.80148	11.27051
0.05719	-1.80148	11.27051
0.06125	-1.80148	11.27051
0.06531	-1.80148	11.27051
0.06936	-1.80148	11.27051
0.07342	-1.80148	11.27051
0.07748	-1.80148	11.27051
0.08153	-1.80148	11.27051
0.08559	-1.80148	11.27051
0.08965	-1.80148	11.27051
0.09370	-1.80148	11.27051
0.09776	-1.80148	11.27051
0.10202	-1.80148	11.27051
0.10608	-1.80148	11.27051
0.11013	-1.80148	11.27051
0.11420	-1.80148	11.27051
0.11826	-1.82345	11.27051
0.12237	-1.82345	11.27051
0.12646	-1.82345	11.27051
0.13053	-1.82345	11.27051
0.13461	-1.84543	11.27051
0.13869	-1.84543	11.27051
0.14276	-1.84543	11.27051
0.14681	-1.84543	11.27051
0.15087	-1.86740	11.27051
0.15493	-1.86740	11.27051
0.15899	-1.86740	11.27051
0.16305	-1.88937	11.27051
0.16711	-1.91134	11.27051
0.17116	-1.91134	11.27051
0.17522	-1.93332	11.27051
0.17928	-1.93332	11.27051
0.18333	-1.95529	11.27051
0.18739	-1.97726	11.27051
0.19145	-1.99923	11.27051
0.19550	-1.99923	11.27051
0.19956	-1.99923	11.27051
0.20382	-2.04318	11.27051
0.20788	-2.04318	11.27051
0.21193	-2.08713	11.27051
0.21598	-2.10910	11.27051
0.22004	-2.13107	11.27051
0.22410	-2.13107	11.27051
0.22815	-2.15304	11.27051
0.23222	-2.19699	11.27051
0.23628	-2.21896	11.27051
0.24037	-2.26291	11.27051
0.24443	-2.26291	11.27051
0.24848	-2.28488	11.27051
0.25254	-2.30685	11.27051
0.25661	-2.32882	11.27051
0.26066	-2.37277	11.27051
0.26472	-2.41672	11.27051
0.26878	-2.41672	11.27051
0.27284	-2.46066	11.27051
0.27689	-2.50461	11.27051
0.28095	-2.52658	11.27051
0.28501	-2.52658	11.27051
0.28906	-2.57052	11.27051
0.29312	-2.61447	11.27051
0.29718	-2.65841	11.27051
0.30123	-2.70236	11.27051
0.30553	-2.74631	11.27051
0.30958	-2.74631	11.27051
0.31364	-2.79025	11.27051
0.31770	-2.83420	11.27051
0.32176	-2.87814	11.27051
0.32581	-2.94406	11.27051
0.32987	-2.94406	11.27051
0.33395	-2.98800	11.27051
0.33801	-3.03195	11.27051
0.34208	-3.09787	11.27051
0.34614	-3.14181	11.27051
0.35019	-3.14181	11.27051
0.35425	-3.20773	11.27051
0.35831	-3.25168	11.27051
0.36236	-3.31759	11.27051
0.36642	-3.36154	11.27051
0.37048	-3.36154	11.27051
0.37454	-3.42746	11.27051
0.37859	-3.49338	11.27051
0.38265	-3.55929	11.27051
0.38671	-3.60324	11.27051
0.39076	-3.66916	11.27051
0.39482	-3.66916	11.27051
0.39887	-3.73507	11.27051
0.40293	-3.80099	11.27051
0.40722	-3.86691	11.27051
0.41128	-3.93283	11.27051
0.41534	-3.93283	11.27051
0.41940	-4.02072	11.27051
0.42345	-4.08664	11.27051
0.42751	-4.13058	11.27051
0.43157	-4.21847	11.27051
0.43564	-4.28439	11.27051
0.43971	-4.28439	11.27051
0.44377	-4.37228	11.27051
0.44783	-4.43820	11.27051
0.45188	-4.52609	11.27051
0.45592	-4.52609	11.27051
0.45998	-4.59201	11.27051
0.46404	-4.67990	11.27051
0.46810	-4.74582	11.27051
0.47215	-4.81173	11.27051
0.47621	-4.89963	11.27051
0.48027	-4.89963	11.27051
0.48432	-4.98752	11.27051
0.48838	-5.05343	11.27051
0.49244	-5.16330	11.27051
0.49649	-5.22922	11.27051
0.50055	-5.22922	11.27051
0.50461	-5.31711	11.27051
0.50890	-5.40500	11.27051
0.51296	-5.49289	11.27051
0.51702	-5.55881	11.27051
0.52108	-5.66867	11.27051
0.52514	-5.66867	11.27051
0.52919	-5.75656	11.27051
0.53326	-5.84445	11.27051
0.53732	-5.93234	11.27051
0.54138	-6.02023	11.27051
0.54544	-6.02023	11.27051
0.54950	-6.10812	11.27051
0.55356	-6.19601	11.27051
0.55762	-6.28390	11.27051
0.56168	-6.37179	11.27051
0.56573	-6.45968	11.27051
0.56979	-6.45968	11.27051
0.57385	-6.56955	11.27051
0.57791	-6.65744	11.27051
0.58196	-6.76730	11.27051
0.58602	-6.76730	11.27051
0.59008	-6.85519	11.27051
0.59413	-6.96506	11.27051
0.59819	-7.07492	11.27051
0.60225	-7.16281	11.27051
0.60631	-7.16281	11.27051
0.61059	-7.27267	11.27051
0.61465	-7.36056	11.27051
0.61871	-7.47043	11.27051
0.62276	-7.58029	11.27051
0.62683	-7.58029	11.27051
0.63089	-7.69015	11.27051
0.63495	-7.77804	11.27051
0.63903	-7.88791	11.27051
0.64309	-7.97580	11.27051
0.64716	-8.08566	11.27051
0.65121	-8.08566	11.27051
0.65527	-8.19552	11.27051
0.65933	-8.30539	11.27051
0.66339	-8.39328	11.27051
0.66744	-8.50314	11.27051
0.67150	-8.50314	11.27051
0.67556	-8.61300	11.27051
0.67961	-8.72287	11.27051
0.68367	-8.81076	11.27051
0.68773	-8.92062	11.27051
0.69178	-9.03048	11.27051
0.69584	-9.03048	11.27051
0.69990	-9.14035	11.27051
0.70392	-9.25021	11.27051
0.70798	-9.38205	11.27051
0.71227	-9.46994	11.27051
0.71632	-9.46994	11.27051
0.72038	-9.57980	11.27051
0.72444	-9.68966	11.27051
0.72850	-9.77756	11.27051
0.73255	-9.88742	11.27051
0.73661	-9.88742	11.27051
0.74068	-9.99728	11.27051
0.74474	-10.12912	11.27051
0.74880	-10.23898	11.27051
0.75286	-10.34884	11.27051
0.75691	-10.34884	11.27051
0.76097	-10.45871	11.27051
0.76503	-10.56857	11.27051
0.76909	-10.65646	11.27051
0.77314	-10.76632	11.27051
0.77720	-10.87619	11.27051
0.78126	-10.87619	11.27051
0.78532	-10.98605	11.27051
0.78938	-11.11789	11.27051
0.79344	-11.22775	11.27051
0.79750	-11.33761	11.27051
0.80156	-11.33761	11.27051
0.80562	-11.44748	11.27051
0.80968	-11.55734	11.27051
0.81396	-11.64523	11.27051
0.81802	-11.75509	11.27051
0.82208	-11.86496	11.27051
0.82614	-11.86496	11.27051
0.83020	-11.97482	11.27051
0.83427	-12.08468	11.27051
0.83833	-12.21652	11.27051
0.84239	-12.30441	11.27051
0.84645	-12.30441	11.27051
0.85052	-12.41427	11.27051
0.85458	-12.52414	11.27051
0.85864	-12.63400	11.27051
0.86269	-12.76584	11.27051
0.86676	-12.76584	11.27051
0.87082	-12.85373	11.27051
0.87487	-12.98556	11.27051
0.87893	-13.07345	11.27051
0.88300	-13.07345	11.27051
0.88706	-13.18332	11.27051
0.89112	-13.29318	11.27051
0.89517	-13.42502	11.27051
0.89924	-13.49093	11.27051
0.90330	-13.62277	11.27051
0.90735	-13.62277	11.27051
0.91141	-13.71066	11.27051
0.91570	-13.84250	11.27051
0.91976	-13.93039	11.27051
0.92382	-14.04025	11.27051
0.92788	-14.04025	11.27051
0.93193	-14.15011	11.27051
0.93599	-14.25998	11.27051
0.94005	-14.34787	11.27051
0.94411	-14.45773	11.27051
0.94817	-14.56759	11.27051
0.95223	-14.56759	11.27051
0.95629	-14.67746	11.27051
0.96035	-14.76535	11.27051
0.96440	-14.87521	11.27051
0.96846	-14.98507	11.27051
0.97252	-14.98507	11.27051
0.97658	-15.09494	11.27051
0.98065	-15.20480	11.27051
0.98470	-15.29269	11.27051
0.98876	-15.38058	11.27051
0.99282	-15.49045	11.27051
0.99688	-15.49045	11.27051
1.00094	-15.60031	11.27051
1.00500	-15.68820	11.27051
1.00906	-15.79806	11.27051
1.01312	-15.79806	11.27051
1.01740	-15.88595	11.27051
1.02146	-15.99582	11.27051
1.02552	-16.08371	11.27051
1.02957	-16.17160	11.27051
1.03365	-16.28146	11.27051
1.03771	-16.28146	11.27051
1.04176	-16.39132	11.27051
1.04584	-16.47922	11.27051
1.04991	-16.58908	11.27051
1.05396	-16.65500	11.27051
1.05802	-16.65500	11.27051
1.06208	-16.76486	11.27051
1.06613	-16.87472	11.27051
1.07019	-16.94064	11.27051
1.07425	-17.05050	11.27051
1.07830	-17.13839	11.27051
1.08236	-17.13839	11.27051
1.08642	-17.24826	11.27051
1.09047	-17.31418	11.27051
1.09453	-17.42404	11.27051
1.09859	-17.51193	11.27051
1.10265	-17.51193	11.27051
1.10671	-17.59982	11.27051
1.11085	-17.68771	11.27051
1.11495	-17.77560	11.27051
1.11927	-17.86349	11.27051
1.12333	-17.86349	11.27051
1.12739	-17.95138	11.27051
1.13145	-18.03927	11.27051
1.13552	-18.12716	11.27051
1.13958	-18.21506	11.27051
1.14363	-18.21506	11.27051
1.14771	-18.28097	11.27051
1.15177	-18.39084	11.27051
1.15583	-18.43478	11.27051
1.15990	-18.54464	11.27051
1.16392	-18.61056	11.27051
1.16798	-18.61056	11.27051
1.17204	-18.69845	11.27051
1.17609	-18.78634	11.27051
1.18015	-18.85226	11.27051
1.18420	-18.91818	11.27051
1.18827	-18.91818	11.27051
1.19232	-19.00607	11.27051
1.19638	-19.05002	11.27051
1.20044	-19.13791	11.27051
1.20450	-19.22580	11.27051
1.20856	-19.22580	11.27051
1.21264	-19.29172	11.27051
1.21671	-19.35763	11.27051
1.22105	-19.42355	11.27051
1.22511	-19.51144	11.27051
1.22917	-19.51144	11.27051
1.23324	-19.57736	11.27051
1.23730	-19.64328	11.27051
1.24136	-19.68722	11.27051
1.24542	-19.75314	11.27051
1.24951	-19.81906	11.27051
1.25358	-19.81906	11.27051
1.25763	-19.88498	11.27051
1.26169	-19.95089	11.27051
1.26575	-20.01681	11.27051
1.26981	-20.08273	11.27051
1.27387	-20.08273	11.27051
1.27792	-20.12668	11.27051
1.28198	-20.19259	11.27051
1.28604	-20.23654	11.27051
1.29010	-20.28048	11.27051
1.29416	-20.34640	11.27051
1.29822	-20.34640	11.27051
1.30228	-20.41232	11.27051
1.30633	-20.45627	11.27051
1.31039	-20.50021	11.27051
1.31445	-20.54416	11.27051
1.31851	-20.54416	11.27051
1.32277	-20.58810	11.27051
1.32682	-20.63205	11.27051
1.33089	-20.67599	11.27051
1.33495	-20.69797	11.27051
1.33901	-20.74191	11.27051
1.34307	-20.74191	11.27051
1.34713	-20.76388	11.27051
1.35120	-20.80783	11.27051
1.35526	-20.82980	11.27051
1.35931	-20.85177	11.27051
1.36337	-20.85177	11.27051
1.36743	-20.87375	11.27051
1.37149	-20.87375	11.27051
1.37555	-20.89572	11.27051
1.37960	-20.89572	11.27051
1.38366	-20.89572	11.27051
1.38772	-20.89572	11.27051
1.39178	-20.89572	11.27051
1.39583	-20.89572	11.27051
1.39989	-20.89572	11.27051
1.40392	-20.89572	11.27051
1.40798	-20.87375	11.27051
1.41204	-20.87375	11.27051
1.41616	-20.85177	11.27051
1.42023	-20.82980	11.27051
1.42460	-20.82980	11.27051
1.42866	-20.80783	11.27051
1.43272	-20.78586	11.27051
1.43679	-20.74191	11.27051
1.44085	-20.71994	11.27051
1.44491	-20.71994	11.27051
1.44896	-20.69797	11.27051
1.45304	-20.65402	11.27051
1.45710	-20.61007	11.27051
1.46116	-20.58810	11.27051
1.46522	-20.54416	11.27051
1.46928	-20.54416	11.27051
1.47334	-20.50021	11.27051
1.47740	-20.45627	11.27051
1.48145	-20.41232	11.27051
1.48551	-20.36838	11.27051
1.48957	-20.36838	11.27051
1.49363	-20.32443	11.27051
1.49769	-20.28048	11.27051
1.50175	-20.23654	11.27051
1.50581	-20.19259	11.27051
1.50987	-20.14865	11.27051
1.51393	-20.14865	11.27051
1.51804	-20.10470	11.27051
1.52210	-20.06076	11.27051
1.52639	-19.99484	11.27051
1.53046	-19.95089	11.27051
1.53452	-19.90695	11.27051
1.53862	-19.90695	11.27051
1.54272	-19.86300	11.27051
1.54678	-19.79709	11.27051
1.55084	-19.77511	11.27051
1.55493	-19.70920	11.27051
1.55900	-19.70920	11.27051
1.56306	-19.64328	11.27051
1.56712	-19.57736	11.27051
1.57118	-19.53341	11.27051
1.57524	-19.53341	11.27051
1.57930	-19.48947	11.27051
1.58336	-19.44552	11.27051
1.58742	-19.37961	11.27051
1.59148	-19.33566	11.27051
1.59553	-19.26974	11.27051
1.59959	-19.26974	11.27051
1.60366	-19.22580	11.27051
1.60772	-19.15988	11.27051
1.61177	-19.09396	11.27051
1.61583	-19.02804	11.27051
1.61990	-19.02804	11.27051
1.62393	-18.98410	11.27051
1.62820	-18.91818	11.27051
1.63226	-18.85226	11.27051
1.63632	-18.80832	11.27051
1.64038	-18.80832	11.27051
1.64443	-18.74240	11.27051
1.64850	-18.67648	11.27051
1.65256	-18.61056	11.27051
1.65663	-18.54464	11.27051
1.66068	-18.54464	11.27051
1.66475	-18.47873	11.27051
1.66881	-18.43478	11.27051
1.67287	-18.36886	11.27051
1.67692	-18.32492	11.27051
1.68099	-18.23703	11.27051
1.68505	-18.23703	11.27051
1.68911	-18.19308	11.27051
1.69317	-18.12716	11.27051
1.69723	-18.06125	11.27051
1.70129	-18.06125	11.27051
1.70535	-17.99533	11.27051
1.70941	-17.95138	11.27051
1.71347	-17.88547	11.27051
1.71754	-17.81955	11.27051
1.72160	-17.75363	11.27051
1.72566	-17.75363	11.27051
1.72996	-17.68771	11.27051
1.73402	-17.62179	11.27051
1.73808	-17.55588	11.27051
1.74214	-17.48996	11.27051
1.74620	-17.48996	11.27051
1.75026	-17.42404	11.27051
1.75432	-17.38009	11.27051
1.75838	-17.31418	11.27051
1.76245	-17.22629	11.27051
1.76651	-17.18234	11.27051
1.77057	-17.18234	11.27051
1.77463	-17.11642	11.27051
1.77869	-17.02853	11.27051
1.78275	-16.96261	11.27051
1.78681	-16.91867	11.27051
1.79087	-16.85275	11.27051
1.79493	-16.85275	11.27051
1.79899	-16.78683	11.27051
1.80305	-16.72091	11.27051
1.80710	-16.65500	11.27051
1.81117	-16.58908	11.27051
1.81523	-16.58908	11.27051
1.81929	-16.52316	11.27051
1.82335	-16.45724	11.27051
1.82741	-16.39132	11.27051
1.83168	-16.32541	11.27051
1.83574	-16.25949	11.27051
1.83980	-16.25949	11.27051
1.84386	-16.21554	11.27051
1.84792	-16.12765	11.27051
1.85198	-16.06173	11.27051
1.85604	-15.99582	11.27051
1.86010	-15.99582	11.27051
1.86416	-15.92990	11.27051
1.86821	-15.86398	11.27051
1.87227	-15.79806	11.27051
1.87633	-15.79806	11.27051
1.88039	-15.73214	11.27051
1.88444	-15.66623	11.27051
1.88850	-15.60031	11.27051
1.89256	-15.53439	11.27051
1.89661	-15.53439	11.27051
1.90067	-15.46847	11.27051
1.90473	-15.40256	11.27051
1.90879	-15.33664	11.27051
1.91285	-15.27072	11.27051
1.91691	-15.27072	11.27051
1.92097	-15.20480	11.27051
1.92502	-15.16086	11.27051
1.92908	-15.09494	11.27051
1.93337	-15.02902	11.27051
1.93743	-14.96310	11.27051
1.94149	-14.96310	11.27051
1.94555	-14.89718	11.27051
1.94960	-14.83127	11.27051
1.95366	-14.76535	11.27051
1.95772	-14.69943	11.27051
1.96179	-14.65548	11.27051
1.96585	-14.65548	11.27051
1.96990	-14.58957	11.27051
1.97396	-14.52365	11.27051
1.97802	-14.45773	11.27051
1.98207	-14.39181	11.27051
1.98613	-14.39181	11.27051
1.99019	-14.32589	11.27051
1.99424	-14.25998	11.27051
1.99830	-14.21603	11.27051
2.00236	-14.21603	11.27051
2.00642	-14.15011	11.27051
2.01048	-14.10617	11.27051
2.01454	-14.04025	11.27051
2.01860	-13.97433	11.27051
2.02266	-13.90841	11.27051
2.02672	-13.90841	11.27051
2.03078	-13.84250	11.27051
2.03507	-13.79855	11.27051
2.03913	-13.73263	11.27051
2.04318	-13.66672	11.27051
2.04724	-13.62277	11.27051
2.05130	-13.62277	11.27051
2.05536	-13.55685	11.27051
2.05941	-13.49093	11.27051
2.06348	-13.44699	11.27051
2.06754	-13.38107	11.27051
2.07161	-13.38107	11.27051
2.07567	-13.31515	11.27051
2.07973	-13.27121	11.27051
2.08378	-13.20529	11.27051
2.08785	-13.16134	11.27051
2.09190	-13.11740	11.27051
2.09592	-13.11740	11.27051
2.09998	-13.05148	11.27051
2.10404	-12.98556	11.27051
2.10810	-12.94162	11.27051
2.11216	-12.89767	11.27051
2.11622	-12.89767	11.27051
2.12028	-12.83175	11.27051
2.12433	-12.76584	11.27051
2.12839	-12.72189	11.27051
2.13245	-12.72189	11.27051
2.13674	-12.67795	11.27051
2.14080	-12.61203	11.27051
2.14485	-12.56808	11.27051
2.14891	-12.50216	11.27051
2.15299	-12.45822	11.27051
2.15705	-12.45822	11.27051
2.16112	-12.41427	11.27051
2.16518	-12.37033	11.27051
2.16924	-12.32638	11.27051
2.17330	-12.32638	11.27051
2.17736	-12.26047	11.27051
2.18142	-12.23849	11.27051
2.18548	-12.17257	11.27051
2.18954	-12.12863	11.27051
2.19359	-12.08468	11.27051
2.19765	-12.08468	11.27051
2.20171	-12.04074	11.27051
2.20577	-11.99679	11.27051
2.20983	-11.95285	11.27051
2.21388	-11.90890	11.27051
2.21794	-11.86496	11.27051
2.22200	-11.86496	11.27051
2.22606	-11.82101	11.27051
2.23012	-11.77707	11.27051
2.23418	-11.75509	11.27051
2.23846	-11.68918	11.27051
2.24252	-11.68918	11.27051
2.24658	-11.64523	11.27051
2.25064	-11.62326	11.27051
2.25469	-11.57931	11.27051
2.25875	-11.53537	11.27051
2.26281	-11.51339	11.27051
2.26688	-11.51339	11.27051
2.27094	-11.46945	11.27051
2.27499	-11.42550	11.27051
2.27905	-11.40353	11.27051
2.28311	-11.35959	11.27051
2.28717	-11.35959	11.27051
2.29123	-11.31564	11.27051
2.29529	-11.29367	11.27051
2.29935	-11.24972	11.27051
2.30341	-11.22775	11.27051
2.30746	-11.22775	11.27051
2.31152	-11.18381	11.27051
2.31558	-11.16183	11.27051
2.31964	-11.11789	11.27051
2.32370	-11.09591	11.27051
2.32775	-11.09591	11.27051
2.33181	-11.05197	11.27051
2.33587	-11.03000	11.27051
2.34016	-11.00802	11.27051
2.34422	-10.96408	11.27051
2.34828	-10.94211	11.27051
2.35234	-10.94211	11.27051
2.35640	-10.92013	11.27051
2.36046	-10.87619	11.27051
2.36451	-10.85422	11.27051
2.36858	-10.83224	11.27051
2.37264	-10.83224	11.27051
2.37670	-10.81027	11.27051
2.38075	-10.78830	11.27051
2.38481	-10.74435	11.27051
2.38887	-10.74435	11.27051
2.39293	-10.74435	11.27051
2.39698	-10.70041	11.27051
2.40104	-10.67843	11.27051
2.40510	-10.65646	11.27051
2.40916	-10.63449	11.27051
2.41322	-10.63449	11.27051
2.41728	-10.63449	11.27051
2.42133	-10.61252	11.27051
2.42539	-10.59054	11.27051
2.42945	-10.56857	11.27051
2.43351	-10.56857	11.27051
2.43757	-10.54660	11.27051
2.44186	-10.52463	11.27051
2.44592	-10.50265	11.27051
2.44998	-10.50265	11.27051
2.45403	-10.48068	11.27051
2.45810	-10.48068	11.27051
2.46216	-10.45871	11.27051
2.46622	-10.45871	11.27051
2.47029	-10.43673	11.27051
2.47435	-10.41476	11.27051
2.47840	-10.41476	11.27051
2.48247	-10.41476	11.27051
2.48653	-10.39279	11.27051
2.49059	-10.39279	11.27051
2.49464	-10.37082	11.27051
2.49870	-10.37082	11.27051
2.50276	-10.37082	11.27051
2.50682	-10.34884	11.27051
2.51088	-10.34884	11.27051
2.51494	-10.32687	11.27051
2.51900	-10.32687	11.27051
2.52305	-10.32687	11.27051
2.52711	-10.32687	11.27051
2.53117	-10.30490	11.27051
2.53523	-10.30490	11.27051
2.53929	-10.30490	11.27051
2.54357	-10.30490	11.27051
2.54763	-10.28293	11.27051
2.55169	-10.28293	11.27051
2.55576	-10.28293	11.27051
2.55982	-10.28293	11.27051
2.56388	-10.28293	11.27051
2.56793	-10.28293	11.27051
2.57199	-10.26095	11.27051
2.57605	-10.26095	11.27051
2.58011	-10.26095	11.27051
2.58417	-10.26095	11.27051
2.58823	-10.26095	11.27051
2.59228	-10.26095	11.27051
2.59635	-10.26095	11.27051
2.60043	-10.26095	11.27051
2.60449	-10.26095	11.27051
2.60856	-10.26095	11.27051
2.61262	-10.26095	11.27051
2.61668	-10.26095	11.27051
2.62074	-10.26095	11.27051
2.62480	-10.26095	11.27051
2.62886	-10.26095	11.27051
2.63292	-10.28293	11.27051
2.63698	-10.28293	11.27051
2.64104	-10.28293	11.27051
2.64532	-10.28293	11.27051
2.64938	-10.28293	11.27051
2.65344	-10.28293	11.27051
2.65750	-10.30490	11.27051
2.66158	-10.30490	11.27051
2.66564	-10.30490	11.27051
2.66969	-10.30490	11.27051
2.67376	-10.32687	11.27051
2.67782	-10.30490	11.27051
2.68187	-10.32687	11.27051
2.68593	-10.34884	11.27051
2.68999	-10.32687	11.27051
2.69404	-10.32687	11.27051
2.69810	-10.34884	11.27051
2.70215	-10.37082	11.27051
2.70621	-10.37082	11.27051
2.71027	-10.39279	11.27051
2.71432	-10.39279	11.27051
2.71839	-10.39279	11.27051
2.72245	-10.41476	11.27051
2.72650	-10.41476	11.27051
2.73056	-10.43673	11.27051
2.73462	-10.43673	11.27051
2.73868	-10.43673	11.27051
2.74273	-10.45871	11.27051
2.74700	-10.48068	11.27051
2.75105	-10.50265	11.27051
2.75511	-10.50265	11.27051
2.75917	-10.50265	11.27051
2.76325	-10.52463	11.27051
2.76731	-10.54660	11.27051
2.77137	-10.54660	11.27051
2.77543	-10.56857	11.27051
2.77949	-10.56857	11.27051
2.78355	-10.59054	11.27051
2.78761	-10.61252	11.27051
2.79167	-10.63449	11.27051
2.79572	-10.63449	11.27051
2.79978	-10.63449	11.27051
2.80384	-10.65646	11.27051
2.80790	-10.67843	11.27051
2.81192	-10.70041	11.27051
2.81598	-10.72238	11.27051
2.82004	-10.74435	11.27051
2.82409	-10.74435	11.27051
2.82815	-10.76632	11.27051
2.83221	-10.78830	11.27051
2.83627	-10.81027	11.27051
2.84033	-10.83224	11.27051
2.84438	-10.83224	11.27051
2.84866	-10.85422	11.27051
2.85272	-10.87619	11.27051
2.85678	-10.89816	11.27051
2.86083	-10.92013	11.27051
2.86490	-10.94211	11.27051
2.86895	-10.94211	11.27051
2.87301	-10.96408	11.27051
2.87708	-11.00802	11.27051
2.88114	-11.03000	11.27051
2.88519	-11.05197	11.27051
2.88925	-11.05197	11.27051
2.89331	-11.07394	11.27051
2.89737	-11.09591	11.27051
2.90142	-11.13986	11.27051
2.90548	-11.13986	11.27051
2.90954	-11.16183	11.27051
2.91359	-11.18381	11.27051
2.91765	-11.20578	11.27051
2.92171	-11.24972	11.27051
2.92577	-11.24972	11.27051
2.92983	-11.27170	11.27051
2.93389	-11.29367	11.27051
2.93796	-11.31564	11.27051
2.94201	-11.35959	11.27051
2.94608	-11.38156	11.27051
2.95036	-11.38156	11.27051
2.95442	-11.40353	11.27051
2.95847	-11.44748	11.27051
2.96262	-11.46945	11.27051
2.96675	-11.51339	11.27051
2.97081	-11.51339	11.27051
2.97487	-11.53537	11.27051
2.97911	-11.55734	11.27051
2.98319	-11.57931	11.27051
2.98725	-11.62326	11.27051
2.99130	-11.64523	11.27051
2.99537	-11.64523	11.27051
2.99943	-11.68918	11.27051
3.00349	-11.71115	11.27051
3.00754	-11.73312	11.27051
3.01161	-11.77707	11.27051
3.01566	-11.77707	11.27051
3.01972	-11.79904	11.27051
3.02378	-11.84298	11.27051
3.02784	-11.86496	11.27051
3.03190	-11.88693	11.27051
3.03593	-11.93088	11.27051
3.03999	-11.93088	11.27051
3.04405	-11.97482	11.27051
3.04810	-11.99679	11.27051
3.05237	-12.04074	11.27051
3.05643	-12.06271	11.27051
3.06049	-12.06271	11.27051
3.06456	-12.10666	11.27051
3.06862	-12.12863	11.27051
3.07268	-12.17257	11.27051
3.07673	-12.19455	11.27051
3.08080	-12.23849	11.27051
3.08486	-12.23849	11.27051
3.08892	-12.28244	11.27051
3.09297	-12.32638	11.27051
3.09703	-12.32638	11.27051
3.10109	-12.32638	11.27051
3.10515	-12.37033	11.27051
3.10920	-12.41427	11.27051
3.11326	-12.43625	11.27051
3.11732	-12.45822	11.27051
3.12137	-12.52414	11.27051
3.12543	-12.52414	11.27051
3.12949	-12.54611	11.27051
3.13355	-12.59006	11.27051
3.13762	-12.61203	11.27051
3.14168	-12.65597	11.27051
3.14573	-12.65597	11.27051
3.14980	-12.67795	11.27051
3.15408	-12.72189	11.27051
3.15814	-12.74386	11.27051
3.16221	-12.80978	11.27051
3.16627	-12.80978	11.27051
3.17034	-12.83175	11.27051
3.17439	-12.87570	11.27051
3.17845	-12.89767	11.27051
3.18265	-12.94162	11.27051
3.18671	-12.94162	11.27051
3.19077	-12.98556	11.27051
3.19483	-13.00754	11.27051
3.19889	-13.05148	11.27051
3.20295	-13.07345	11.27051
3.20701	-13.11740	11.27051
3.21107	-13.11740	11.27051
3.21512	-13.13937	11.27051
3.21918	-13.18332	11.27051
3.22324	-13.20529	11.27051
3.22730	-13.27121	11.27051
3.23135	-13.27121	11.27051
3.23542	-13.29318	11.27051
3.23948	-13.33713	11.27051
3.24354	-13.35910	11.27051
3.24760	-13.38107	11.27051
3.25166	-13.38107	11.27051
3.25596	-13.42502	11.27051
3.26002	-13.46896	11.27051
3.26408	-13.49093	11.27051
3.26814	-13.53488	11.27051
3.27220	-13.53488	11.27051
3.27625	-13.55685	11.27051
3.28031	-13.60080	11.27051
3.28440	-13.64474	11.27051
3.28846	-13.66672	11.27051
3.29251	-13.68869	11.27051
3.29658	-13.68869	11.27051
3.30064	-13.73263	11.27051
3.30470	-13.75461	11.27051
3.30876	-13.79855	11.27051
3.31296	-13.82052	11.27051
3.31702	-13.82052	11.27051
3.32108	-13.86447	11.27051
3.32514	-13.90841	11.27051
3.32920	-13.93039	11.27051
3.33326	-13.95236	11.27051
3.33733	-13.99631	11.27051
3.34138	-13.99631	11.27051
3.34545	-14.01828	11.27051
3.34951	-14.06222	11.27051
3.35357	-14.08420	11.27051
3.35784	-14.12814	11.27051
3.36191	-14.12814	11.27051
3.36597	-14.17209	11.27051
3.37003	-14.19406	11.27051
3.37409	-14.21603	11.27051
3.37815	-14.25998	11.27051
3.38222	-14.28195	11.27051
3.38629	-14.28195	11.27051
3.39035	-14.32589	11.27051
3.39442	-14.34787	11.27051
3.39848	-14.36984	11.27051
3.40254	-14.41379	11.27051
3.40659	-14.41379	11.27051
3.41065	-14.45773	11.27051
3.41471	-14.47970	11.27051
3.41877	-14.50168	11.27051
3.42282	-14.54562	11.27051
3.42688	-14.54562	11.27051
3.43094	-14.56759	11.27051
3.43499	-14.58957	11.27051
3.43905	-14.63351	11.27051
3.44311	-14.63351	11.27051
3.44717	-14.65548	11.27051
3.45123	-14.67746	11.27051
3.45528	-14.72140	11.27051
3.45956	-14.74338	11.27051
3.46362	-14.76535	11.27051
3.46770	-14.76535	11.27051
3.47177	-14.78732	11.27051
3.47583	-14.83127	11.27051
3.47988	-14.85324	11.27051
3.48392	-14.87521	11.27051
3.48800	-14.87521	11.27051
3.49205	-14.91916	11.27051
3.49611	-14.94113	11.27051
3.50017	-14.96310	11.27051
3.50423	-14.98507	11.27051
3.50828	-15.00705	11.27051
3.51234	-15.00705	11.27051
3.51640	-15.02902	11.27051
3.52046	-15.05099	11.27051
3.52451	-15.09494	11.27051
3.52857	-15.11691	11.27051
3.53263	-15.11691	11.27051
3.53668	-15.13888	11.27051
3.54074	-15.18283	11.27051
3.54480	-15.18283	11.27051
3.54886	-15.20480	11.27051
3.55292	-15.22677	11.27051
3.55699	-15.22677	11.27051
3.56166	-15.24875	11.27051
3.56572	-15.27072	11.27051
3.56979	-15.31466	11.27051
3.57385	-15.33664	11.27051
3.57791	-15.33664	11.27051
3.58197	-15.35861	11.27051
3.58603	-15.35861	11.27051
3.59010	-15.38058	11.27051
3.59416	-15.42453	11.27051
3.59821	-15.42453	11.27051
3.60227	-15.42453	11.27051
3.60633	-15.44650	11.27051
3.61038	-15.49045	11.27051
3.61444	-15.49045	11.27051
3.61850	-15.51242	11.27051
3.62255	-15.51242	11.27051
3.62661	-15.53439	11.27051
3.63066	-15.55636	11.27051
3.63472	-15.57834	11.27051
3.63884	-15.60031	11.27051
3.64292	-15.60031	11.27051
3.64698	-15.60031	11.27051
3.65104	-15.62228	11.27051
3.65510	-15.64425	11.27051
3.65916	-15.68820	11.27051
3.66344	-15.68820	11.27051
3.66750	-15.68820	11.27051
3.67155	-15.68820	11.27051
3.67561	-15.73214	11.27051
3.67967	-15.73214	11.27051
3.68373	-15.73214	11.27051
3.68778	-15.75412	11.27051
3.69185	-15.77609	11.27051
3.69590	-15.79806	11.27051
3.69993	-15.79806	11.27051
3.70399	-15.79806	11.27051
3.70804	-15.82004	11.27051
3.71210	-15.84201	11.27051
3.71620	-15.84201	11.27051
3.72025	-15.86398	11.27051
3.72431	-15.88595	11.27051
3.72837	-15.88595	11.27051
3.73242	-15.88595	11.27051
3.73648	-15.90793	11.27051
3.74057	-15.90793	11.27051
3.74464	-15.92990	11.27051
3.74870	-15.92990	11.27051
3.75275	-15.92990	11.27051
3.75681	-15.95187	11.27051
3.76087	-15.97384	11.27051
3.76513	-15.97384	11.27051
3.76919	-15.97384	11.27051
3.77325	-15.97384	11.27051
3.77731	-15.99582	11.27051
3.78136	-15.99582	11.27051
3.78542	-16.01779	11.27051
3.78948	-16.01779	11.27051
3.79355	-16.01779	11.27051
3.79760	-16.03976	11.27051
3.80166	-16.03976	11.27051
3.80572	-16.03976	11.27051
3.80977	-16.06173	11.27051
3.81383	-16.06173	11.27051
3.81789	-16.08371	11.27051
3.82194	-16.06173	11.27051
3.82600	-16.08371	11.27051
3.83005	-16.08371	11.27051
3.83411	-16.08371	11.27051
3.83817	-16.08371	11.27051
3.84223	-16.10568	11.27051
3.84628	-16.12765	11.27051
3.85034	-16.10568	11.27051
3.85440	-16.12765	11.27051
3.85845	-16.12765	11.27051
3.86251	-16.12765	11.27051
3.86678	-16.12765	11.27051
3.87086	-16.12765	11.27051
3.87492	-16.14963	11.27051
3.87900	-16.14963	11.27051
3.88311	-16.14963	11.27051
3.88717	-16.14963	11.27051
3.89123	-16.12765	11.27051
3.89531	-16.14963	11.27051
3.89939	-16.14963	11.27051
3.90345	-16.14963	11.27051
3.90751	-16.14963	11.27051
3.91157	-16.17160	11.27051
3.91563	-16.14963	11.27051
3.91968	-16.14963	11.27051
3.92374	-16.14963	11.27051
3.92780	-16.14963	11.27051
3.93186	-16.14963	11.27051
3.93595	-16.14963	11.27051
3.94001	-16.14963	11.27051
3.94407	-16.14963	11.27051
3.94814	-16.14963	11.27051
3.95220	-16.14963	11.27051
3.95626	-16.12765	11.27051
3.96032	-16.12765	11.27051
3.96437	-16.14963	11.27051
3.96872	-16.14963	11.27051
3.97277	-16.14963	11.27051
3.97683	-16.12765	11.27051
3.98089	-16.12765	11.27051
3.98495	-16.12765	11.27051
3.98901	-16.12765	11.27051
3.99306	-16.12765	11.27051
3.99712	-16.12765	11.27051
4.00119	-16.12765	11.27051
4.00525	-16.12765	11.27051
4.00930	-16.10568	11.27051
4.01336	-16.10568	11.27051
4.01742	-16.10568	11.27051
4.02148	-16.10568	11.27051
4.02553	-16.08371	11.27051
4.02959	-16.08371	11.27051
4.03365	-16.08371	11.27051
4.03771	-16.08371	11.27051
4.04176	-16.06173	11.27051
4.04582	-16.06173	11.27051
4.04988	-16.06173	11.27051
4.05393	-16.03976	11.27051
4.05799	-16.03976	11.27051
4.06205	-16.03976	11.27051
4.06611	-16.01779	11.27051
4.07039	-16.01779	11.27051
4.07445	-16.01779	11.27051
4.07850	-15.99582	11.27051
4.08256	-15.99582	11.27051
4.08662	-15.99582	11.27051
4.09068	-15.97384	11.27051
4.09474	-15.97384	11.27051
4.09881	-15.97384	11.27051
4.10287	-15.95187	11.27051
4.10692	-15.92990	11.27051
4.11098	-15.92990	11.27051
4.11504	-15.92990	11.27051
4.11910	-15.92990	11.27051
4.12316	-15.92990	11.27051
4.12722	-15.90793	11.27051
4.13128	-15.88595	11.27051
4.13534	-15.88595	11.27051
4.13940	-15.88595	11.27051
4.14345	-15.86398	11.27051
4.14752	-15.84201	11.27051
4.15157	-15.84201	11.27051
4.15563	-15.82004	11.27051
4.15969	-15.82004	11.27051
4.16375	-15.79806	11.27051
4.16781	-15.79806	11.27051
4.17209	-15.77609	11.27051
4.17615	-15.75412	11.27051
4.18021	-15.75412	11.27051
4.18428	-15.75412	11.27051
4.18834	-15.73214	11.27051
4.19240	-15.71017	11.27051
4.19646	-15.71017	11.27051
4.20054	-15.71017	11.27051
4.20460	-15.68820	11.27051
4.20866	-15.68820	11.27051
4.21272	-15.66623	11.27051
4.21678	-15.64425	11.27051
4.22084	-15.64425	11.27051
4.22490	-15.62228	11.27051
4.22896	-15.62228	11.27051
4.23302	-15.60031	11.27051
4.23708	-15.57834	11.27051
4.24114	-15.55636	11.27051
4.24520	-15.55636	11.27051
4.24926	-15.55636	11.27051
4.25331	-15.53439	11.27051
4.25737	-15.51242	11.27051
4.26143	-15.51242	11.27051
4.26549	-15.51242	11.27051
4.26955	-15.49045	11.27051
4.27384	-15.49045	11.27051
4.27790	-15.46847	11.27051
4.28196	-15.44650	11.27051
4.28603	-15.44650	11.27051
4.29009	-15.44650	11.27051
4.29415	-15.40256	11.27051
4.29821	-15.40256	11.27051
4.30229	-15.38058	11.27051
4.30635	-15.38058	11.27051
4.31041	-15.35861	11.27051
4.31446	-15.35861	11.27051
4.31853	-15.33664	11.27051
4.32258	-15.31466	11.27051
4.32664	-15.29269	11.27051
4.33070	-15.29269	11.27051
4.33476	-15.29269	11.27051
4.33882	-15.27072	11.27051
4.34288	-15.24875	11.27051
4.34693	-15.24875	11.27051
4.35099	-15.22677	11.27051
4.35505	-15.22677	11.27051
4.35911	-15.20480	11.27051
4.36317	-15.18283	11.27051
4.36723	-15.18283	11.27051
4.37129	-15.16086	11.27051
4.37557	-15.16086	11.27051
4.37963	-15.13888	11.27051
4.38369	-15.13888	11.27051
4.38776	-15.11691	11.27051
4.39182	-15.09494	11.27051
4.39588	-15.07297	11.27051
4.39993	-15.07297	11.27051
4.40400	-15.07297	11.27051
4.40806	-15.05099	11.27051
4.41212	-15.02902	11.27051
4.41618	-15.02902	11.27051
4.42024	-15.02902	11.27051
4.42430	-15.00705	11.27051
4.42836	-14.98507	11.27051
4.43242	-14.98507	11.27051
4.43648	-14.98507	11.27051
4.44054	-14.96310	11.27051
4.44459	-14.94113	11.27051
4.44866	-14.91916	11.27051
4.45272	-14.91916	11.27051
4.45678	-14.91916	11.27051
4.46084	-14.89718	11.27051
4.46502	-14.87521	11.27051
4.46907	-14.87521	11.27051
4.47313	-14.85324	11.27051
4.47742	-14.85324	11.27051
4.48165	-14.83127	11.27051
4.48571	-14.83127	11.27051
4.48978	-14.80929	11.27051
4.49383	-14.78732	11.27051
4.49790	-14.78732	11.27051
4.50196	-14.78732	11.27051
4.50604	-14.76535	11.27051
4.51010	-14.76535	11.27051
4.51416	-14.72140	11.27051
4.51822	-14.72140	11.27051
4.52228	-14.72140	11.27051
4.52634	-14.72140	11.27051
4.53039	-14.69943	11.27051
4.53446	-14.67746	11.27051
4.53852	-14.67746	11.27051
4.54257	-14.65548	11.27051
4.54663	-14.65548	11.27051
4.55069	-14.65548	11.27051
4.55475	-14.63351	11.27051
4.55880	-14.61154	11.27051
4.56286	-14.61154	11.27051
4.56693	-14.61154	11.27051
4.57098	-14.61154	11.27051
4.57504	-14.58957	11.27051
4.57934	-14.56759	11.27051
4.58340	-14.54562	11.27051
4.58746	-14.54562	11.27051
4.59152	-14.54562	11.27051
4.59558	-14.54562	11.27051
4.59964	-14.52365	11.27051
4.60370	-14.52365	11.27051
4.60778	-14.50168	11.27051
4.61184	-14.50168	11.27051
4.61591	-14.50168	11.27051
4.61993	-14.50168	11.27051
4.62398	-14.47970	11.27051
4.62804	-14.45773	11.27051
4.63210	-14.45773	11.27051
4.63616	-14.45773	11.27051
4.64022	-14.43576	11.27051
4.64428	-14.43576	11.27051
4.64833	-14.41379	11.27051
4.65239	-14.41379	11.27051
4.65645	-14.41379	11.27051
4.66051	-14.41379	11.27051
4.66457	-14.39181	11.27051
4.66863	-14.39181	11.27051
4.67269	-14.39181	11.27051
4.67675	-14.39181	11.27051
4.68102	-14.36984	11.27051
4.68508	-14.36984	11.27051
4.68914	-14.36984	11.27051
4.69321	-14.34787	11.27051
4.69726	-14.34787	11.27051
4.70133	-14.34787	11.27051
4.70539	-14.34787	11.27051
4.70947	-14.32589	11.27051
4.71353	-14.32589	11.27051
4.71760	-14.32589	11.27051
4.72166	-14.30392	11.27051
4.72572	-14.30392	11.27051
4.72978	-14.30392	11.27051
4.73384	-14.28195	11.27051
4.73790	-14.30392	11.27051
4.74196	-14.30392	11.27051
4.74602	-14.28195	11.27051
4.75008	-14.25998	11.27051
4.75414	-14.28195	11.27051
4.75819	-14.25998	11.27051
4.76225	-14.25998	11.27051
4.76631	-14.25998	11.27051
4.77037	-14.25998	11.27051
4.77442	-14.23800	11.27051
4.77848	-14.23800	11.27051
4.78276	-14.23800	11.27051
4.78682	-14.23800	11.27051
4.79088	-14.23800	11.27051
4.79495	-14.23800	11.27051
4.79901	-14.23800	11.27051
4.80306	-14.23800	11.27051
4.80712	-14.21603	11.27051
4.81120	-14.23800	11.27051
4.81530	-14.21603	11.27051
4.81936	-14.21603	11.27051
4.82342	-14.21603	11.27051
4.82748	-14.21603	11.27051
4.83157	-14.21603	11.27051
4.83563	-14.21603	11.27051
4.83969	-14.21603	11.27051
4.84375	-14.21603	11.27051
4.84781	-14.21603	11.27051
4.85187	-14.21603	11.27051
4.85592	-14.19406	11.27051
4.85998	-14.21603	11.27051
4.86404	-14.21603	11.27051
4.86811	-14.19406	11.27051
4.87218	-14.19406	11.27051
4.87624	-14.21603	11.27051
4.88030	-14.21603	11.27051
4.88459	-14.19406	11.27051
4.88864	-14.21603	11.27051
4.89270	-14.21603	11.27051
4.89676	-14.21603	11.27051
4.90081	-14.19406	11.27051
4.90487	-14.21603	11.27051
4.90893	-14.21603	11.27051
4.91299	-14.21603	11.27051
4.91705	-14.21603	11.27051
4.92111	-14.19406	11.27051
4.92516	-14.19406	11.27051
4.92922	-14.21603	11.27051
4.93327	-14.21603	11.27051
4.93733	-14.21603	11.27051
4.94139	-14.19406	11.27051
4.94545	-14.21603	11.27051
4.94951	-14.21603	11.27051
4.95356	-14.21603	11.27051
4.95762	-14.21603	11.27051
4.96168	-14.21603	11.27051
4.96573	-14.21603	11.27051
4.96979	-14.21603	11.27051
4.97385	-14.21603	11.27051
4.97790	-14.21603	11.27051
4.98198	-14.23800	11.27051
4.98626	-14.23800	11.27051
4.99032	-14.21603	11.27051
4.99438	-14.21603	11.27051
4.99843	-14.21603	11.27051
5.00249	-14.23800	11.27051
5.00655	-14.23800	11.27051
5.01061	-14.23800	11.27051
5.01467	-14.23800	11.27051
5.01873	-14.23800	11.27051
5.02279	-14.23800	11.27051
5.02684	-14.25998	11.27051
5.03090	-14.25998	11.27051
5.03496	-14.25998	11.27051
5.03904	-14.25998	11.27051
5.04309	-14.25998	11.27051
5.04715	-14.25998	11.27051
5.05121	-14.28195	11.27051
5.05527	-14.25998	11.27051
5.05933	-14.28195	11.27051
5.06338	-14.28195	11.27051
5.06744	-14.28195	11.27051
5.07150	-14.28195	11.27051
5.07555	-14.28195	11.27051
5.07961	-14.28195	11.27051
5.08369	-14.28195	11.27051
5.08799	-14.30392	11.27051
5.09595	-14.30392	11.27051
5.10002	-14.30392	11.27051
5.10414	-14.30392	11.27051
5.10822	-14.30392	11.27051
5.11228	-14.32589	11.27051
5.11639	-14.32589	11.27051
5.12047	-14.32589	11.27051
5.12454	-14.32589	11.27051
5.12860	-14.32589	11.27051
5.13266	-14.34787	11.27051
5.13672	-14.34787	11.27051
5.14078	-14.34787	11.27051
5.14484	-14.34787	11.27051
5.14890	-14.34787	11.27051
5.15296	-14.36984	11.27051
5.15702	-14.36984	11.27051
5.16107	-14.36984	11.27051
5.16514	-14.36984	11.27051
5.16919	-14.39181	11.27051
5.17325	-14.39181	11.27051
5.17731	-14.36984	11.27051
5.18137	-14.39181	11.27051
5.18543	-14.39181	11.27051
5.18949	-14.39181	11.27051
5.19374	-14.39181	11.27051
5.19779	-14.41379	11.27051
5.20185	-14.39181	11.27051
5.20591	-14.41379	11.27051
5.20997	-14.41379	11.27051
5.21402	-14.41379	11.27051
5.21809	-14.41379	11.27051
5.22215	-14.43576	11.27051
5.22621	-14.43576	11.27051
5.23026	-14.43576	11.27051
5.23438	-14.43576	11.27051
5.23850	-14.45773	11.27051
5.24257	-14.45773	11.27051
5.24664	-14.45773	11.27051
5.25070	-14.47970	11.27051
5.25476	-14.47970	11.27051
5.25882	-14.45773	11.27051
5.26287	-14.47970	11.27051
5.26693	-14.47970	11.27051
5.27098	-14.50168	11.27051
5.27504	-14.50168	11.27051
5.27910	-14.47970	11.27051
5.28315	-14.50168	11.27051
5.28723	-14.50168	11.27051
5.29129	-14.50168	11.27051
5.29555	-14.52365	11.27051
5.29961	-14.52365	11.27051
5.30367	-14.52365	11.27051
5.30772	-14.52365	11.27051
5.31178	-14.52365	11.27051
5.31584	-14.54562	11.27051
5.31990	-14.54562	11.27051
5.32394	-14.54562	11.27051
5.32800	-14.54562	11.27051
5.33206	-14.56759	11.27051
5.33611	-14.56759	11.27051
5.34017	-14.56759	11.27051
5.34423	-14.56759	11.27051
5.34829	-14.56759	11.27051
5.35234	-14.56759	11.27051
5.35640	-14.58957	11.27051
5.36046	-14.58957	11.27051
5.36451	-14.58957	11.27051
5.36857	-14.61154	11.27051
5.37263	-14.61154	11.27051
5.37668	-14.61154	11.27051
5.38074	-14.61154	11.27051
5.38480	-14.61154	11.27051
5.38885	-14.63351	11.27051
5.39291	-14.63351	11.27051
5.39719	-14.63351	11.27051
5.40125	-14.63351	11.27051
5.40531	-14.63351	11.27051
5.40937	-14.65548	11.27051
5.41343	-14.65548	11.27051
5.41749	-14.67746	11.27051
5.42154	-14.67746	11.27051
5.42561	-14.67746	11.27051
5.42967	-14.67746	11.27051
5.43373	-14.67746	11.27051
5.43778	-14.69943	11.27051
5.44184	-14.69943	11.27051
5.44590	-14.69943	11.27051
5.44996	-14.69943	11.27051
5.45402	-14.72140	11.27051
5.45808	-14.72140	11.27051
5.46214	-14.72140	11.27051
5.46620	-14.74338	11.27051
5.47025	-14.74338	11.27051
5.47431	-14.74338	11.27051
5.47837	-14.76535	11.27051
5.48243	-14.74338	11.27051
5.48648	-14.76535	11.27051
5.49054	-14.76535	11.27051
5.49460	-14.76535	11.27051
5.49888	-14.76535	11.27051
5.50294	-14.78732	11.27051
5.50700	-14.78732	11.27051
5.51105	-14.78732	11.27051
5.51511	-14.78732	11.27051
5.51917	-14.80929	11.27051
5.52323	-14.80929	11.27051
5.52729	-14.80929	11.27051
5.53137	-14.80929	11.27051
5.53542	-14.80929	11.27051
5.53948	-14.83127	11.27051
5.54354	-14.83127	11.27051
5.54760	-14.83127	11.27051
5.55166	-14.83127	11.27051
5.55573	-14.83127	11.27051
5.55979	-14.85324	11.27051
5.56384	-14.85324	11.27051
5.56790	-14.85324	11.27051
5.57194	-14.87521	11.27051
5.57600	-14.87521	11.27051
5.58006	-14.87521	11.27051
5.58412	-14.87521	11.27051
5.58818	-14.87521	11.27051
5.59224	-14.87521	11.27051
5.59629	-14.89718	11.27051
5.60059	-14.89718	11.27051
5.60465	-14.89718	11.27051
5.60871	-14.89718	11.27051
5.61277	-14.91916	11.27051
5.61683	-14.91916	11.27051
5.62089	-14.91916	11.27051
5.62495	-14.91916	11.27051
5.62903	-14.91916	11.27051
5.63309	-14.94113	11.27051
5.63716	-14.94113	11.27051
5.64122	-14.94113	11.27051
5.64527	-14.94113	11.27051
5.64933	-14.94113	11.27051
5.65339	-14.96310	11.27051
5.65745	-14.96310	11.27051
5.66151	-14.96310	11.27051
5.66557	-14.96310	11.27051
5.66962	-14.96310	11.27051
5.67369	-14.98507	11.27051
5.67775	-14.98507	11.27051
5.68180	-14.98507	11.27051
5.68586	-14.98507	11.27051
5.68992	-14.98507	11.27051
5.69398	-14.98507	11.27051
5.69803	-15.00705	11.27051
5.70233	-15.00705	11.27051
5.70639	-15.00705	11.27051
5.71044	-15.00705	11.27051
5.71451	-15.00705	11.27051
5.71857	-15.00705	11.27051
5.72262	-15.00705	11.27051
5.72668	-15.00705	11.27051
5.73077	-15.02902	11.27051
5.73483	-15.02902	11.27051
5.73889	-15.02902	11.27051
5.74294	-15.02902	11.27051
5.74700	-15.02902	11.27051
5.75106	-15.05099	11.27051
5.75511	-15.05099	11.27051
5.75918	-15.05099	11.27051
5.76324	-15.05099	11.27051
5.76729	-15.05099	11.27051
5.77135	-15.05099	11.27051
5.77541	-15.05099	11.27051
5.77947	-15.05099	11.27051
5.78353	-15.05099	11.27051
5.78759	-15.05099	11.27051
5.79165	-15.05099	11.27051
5.79570	-15.07297	11.27051
5.79976	-15.07297	11.27051
5.80407	-15.07297	11.27051
5.80813	-15.07297	11.27051
5.81219	-15.07297	11.27051
5.81625	-15.07297	11.27051
5.82031	-15.07297	11.27051
5.82437	-15.07297	11.27051
5.82842	-15.09494	11.27051
5.83250	-15.09494	11.27051
5.83656	-15.09494	11.27051
5.84062	-15.07297	11.27051
5.84468	-15.09494	11.27051
5.84874	-15.09494	11.27051
5.85280	-15.09494	11.27051
5.85685	-15.09494	11.27051
5.86091	-15.09494	11.27051
5.86497	-15.09494	11.27051
5.86903	-15.09494	11.27051
5.87309	-15.09494	11.27051
5.87714	-15.09494	11.27051
5.88120	-15.09494	11.27051
5.88526	-15.09494	11.27051
5.88932	-15.09494	11.27051
5.89337	-15.09494	11.27051
5.89743	-15.09494	11.27051
5.90149	-15.09494	11.27051
5.90578	-15.09494	11.27051
5.90984	-15.09494	11.27051
5.91389	-15.09494	11.27051
5.91796	-15.09494	11.27051
5.92202	-15.09494	11.27051
5.92608	-15.09494	11.27051
5.93013	-15.11691	11.27051
5.93421	-15.09494	11.27051
5.93827	-15.09494	11.27051
5.94233	-15.09494	11.27051
5.94638	-15.09494	11.27051
5.95044	-15.09494	11.27051
5.95450	-15.09494	11.27051
5.95855	-15.09494	11.27051
5.96262	-15.09494	11.27051
5.96667	-15.09494	11.27051
5.97073	-15.09494	11.27051
5.97479	-15.09494	11.27051
5.97884	-15.09494	11.27051
5.98290	-15.09494	11.27051
5.98696	-15.09494	11.27051
5.99101	-15.09494	11.27051
5.99507	-15.09494	11.27051
5.99913	-15.09494	11.27051
6.00319	-15.09494	11.27051
6.00749	-15.07297	11.27051
6.01155	-15.07297	11.27051
6.01561	-15.07297	11.27051
6.01967	-15.07297	11.27051
6.02373	-15.07297	11.27051
6.02779	-15.07297	11.27051
6.03185	-15.07297	11.27051
6.03596	-15.07297	11.27051
6.04002	-15.05099	11.27051
6.04408	-15.05099	11.27051
6.04813	-15.05099	11.27051
6.05219	-15.07297	11.27051
6.05625	-15.05099	11.27051
6.06031	-15.02902	11.27051
6.06437	-15.05099	11.27051
6.06842	-15.05099	11.27051
6.07340	-15.02902	11.27051
6.07746	-15.02902	11.27051
6.08152	-15.05099	11.27051
6.08558	-15.02902	11.27051
6.08964	-15.02902	11.27051
6.09370	-15.02902	11.27051
6.09776	-15.02902	11.27051
6.10181	-15.00705	11.27051
6.10587	-15.02902	11.27051
6.11016	-15.00705	11.27051
6.11422	-15.00705	11.27051
6.11828	-15.00705	11.27051
6.12234	-15.00705	11.27051
6.12640	-14.98507	11.27051
6.13046	-15.00705	11.27051
6.13451	-14.98507	11.27051
6.13860	-14.98507	11.27051
6.14267	-14.98507	11.27051
6.14672	-14.98507	11.27051
6.15078	-14.98507	11.27051
6.15484	-14.96310	11.27051
6.15889	-14.96310	11.27051
6.16295	-14.96310	11.27051
6.16701	-14.96310	11.27051
6.17107	-14.96310	11.27051
6.17513	-14.94113	11.27051
6.17919	-14.94113	11.27051
6.18324	-14.94113	11.27051
6.18730	-14.94113	11.27051
6.19135	-14.94113	11.27051
6.19541	-14.91916	11.27051
6.19947	-14.91916	11.27051
6.20353	-14.91916	11.27051
6.20758	-14.91916	11.27051
6.21188	-14.91916	11.27051
6.21592	-14.91916	11.27051
6.21998	-14.89718	11.27051
6.22404	-14.89718	11.27051
6.22810	-14.89718	11.27051
6.23215	-14.89718	11.27051
6.23621	-14.87521	11.27051
6.24028	-14.87521	11.27051
6.24434	-14.87521	11.27051
6.24839	-14.87521	11.27051
6.25245	-14.85324	11.27051
6.25651	-14.87521	11.27051
6.26057	-14.85324	11.27051
6.26462	-14.85324	11.27051
6.26868	-14.85324	11.27051
6.27274	-14.85324	11.27051
6.27679	-14.85324	11.27051
6.28085	-14.83127	11.27051
6.28491	-14.83127	11.27051
6.28896	-14.83127	11.27051
6.29302	-14.80929	11.27051
6.29708	-14.80929	11.27051
6.30114	-14.80929	11.27051
6.30554	-14.80929	11.27051
6.30960	-14.80929	11.27051
6.31390	-14.78732	11.27051
6.31795	-14.78732	11.27051
6.32202	-14.78732	11.27051
6.32608	-14.78732	11.27051
6.33014	-14.76535	11.27051
6.33420	-14.78732	11.27051
6.33826	-14.78732	11.27051
6.34233	-14.76535	11.27051
6.34639	-14.76535	11.27051
6.35045	-14.76535	11.27051
6.35452	-14.76535	11.27051
6.35858	-14.74338	11.27051
6.36264	-14.74338	11.27051
6.36670	-14.74338	11.27051
6.37076	-14.74338	11.27051
6.37482	-14.74338	11.27051
6.37888	-14.74338	11.27051
6.38294	-14.72140	11.27051
6.38700	-14.72140	11.27051
6.39106	-14.72140	11.27051
6.39512	-14.72140	11.27051
6.39918	-14.69943	11.27051
6.40324	-14.69943	11.27051
6.40729	-14.69943	11.27051
6.41135	-14.69943	11.27051
6.41565	-14.69943	11.27051
6.41971	-14.69943	11.27051
6.42376	-14.69943	11.27051
6.42782	-14.67746	11.27051
6.43188	-14.67746	11.27051
6.43593	-14.67746	11.27051
6.43998	-14.67746	11.27051
6.44406	-14.67746	11.27051
6.44812	-14.67746	11.27051
6.45218	-14.65548	11.27051
6.45624	-14.65548	11.27051
6.46030	-14.67746	11.27051
6.46437	-14.65548	11.27051
6.46842	-14.65548	11.27051
6.47248	-14.67746	11.27051
6.47654	-14.65548	11.27051
6.48060	-14.63351	11.27051
6.48466	-14.63351	11.27051
6.48872	-14.65548	11.27051
6.49277	-14.63351	11.27051
6.49692	-14.65548	11.27051
6.50098	-14.63351	11.27051
6.50503	-14.63351	11.27051
6.50909	-14.63351	11.27051
6.51316	-14.63351	11.27051
6.51746	-14.63351	11.27051
6.52151	-14.63351	11.27051
6.52557	-14.63351	11.27051
6.52963	-14.63351	11.27051
6.53369	-14.63351	11.27051
6.53774	-14.61154	11.27051
6.54180	-14.63351	11.27051
6.54588	-14.63351	11.27051
6.54994	-14.63351	11.27051
6.55399	-14.61154	11.27051
6.55806	-14.63351	11.27051
6.56212	-14.61154	11.27051
6.56617	-14.61154	11.27051
6.57023	-14.61154	11.27051
6.57429	-14.61154	11.27051
6.57835	-14.61154	11.27051
6.58241	-14.61154	11.27051
6.58646	-14.61154	11.27051
6.59052	-14.61154	11.27051
6.59458	-14.61154	11.27051
6.59864	-14.61154	11.27051
6.60270	-14.61154	11.27051
6.60676	-14.61154	11.27051
6.61082	-14.61154	11.27051
6.61487	-14.58957	11.27051
6.61918	-14.58957	11.27051
6.62323	-14.61154	11.27051
6.62729	-14.61154	11.27051
6.63135	-14.58957	11.27051
6.63542	-14.61154	11.27051
6.63947	-14.61154	11.27051
6.64353	-14.61154	11.27051
6.64760	-14.58957	11.27051
6.65166	-14.61154	11.27051
6.65571	-14.61154	11.27051
6.65977	-14.61154	11.27051
6.66383	-14.61154	11.27051
6.66789	-14.61154	11.27051
6.67192	-14.61154	11.27051
6.67598	-14.61154	11.27051
6.68004	-14.61154	11.27051
6.68409	-14.61154	11.27051
6.68815	-14.61154	11.27051
6.69221	-14.61154	11.27051
6.69627	-14.61154	11.27051
6.70034	-14.61154	11.27051
6.70440	-14.61154	11.27051
6.70846	-14.61154	11.27051
6.71260	-14.61154	11.27051
6.71669	-14.61154	11.27051
6.72106	-14.61154	11.27051
6.72513	-14.61154	11.27051
6.72919	-14.61154	11.27051
6.73326	-14.61154	11.27051
6.73732	-14.61154	11.27051
6.74138	-14.61154	11.27051
6.74544	-14.61154	11.27051
6.74952	-14.63351	11.27051
6.75359	-14.61154	11.27051
6.75764	-14.61154	11.27051
6.76170	-14.61154	11.27051
6.76576	-14.61154	11.27051
6.76982	-14.61154	11.27051
6.77387	-14.63351	11.27051
6.77794	-14.61154	11.27051
6.78199	-14.61154	11.27051
6.78605	-14.61154	11.27051
6.79011	-14.61154	11.27051
6.79417	-14.61154	11.27051
6.79822	-14.61154	11.27051
6.80231	-14.61154	11.27051
6.80636	-14.61154	11.27051
6.81042	-14.61154	11.27051
6.81448	-14.63351	11.27051
6.81853	-14.61154	11.27051
6.82281	-14.61154	11.27051
6.82687	-14.61154	11.27051
6.83093	-14.61154	11.27051
6.83499	-14.61154	11.27051
6.83905	-14.61154	11.27051
6.84311	-14.63351	11.27051
6.84718	-14.61154	11.27051
6.85127	-14.61154	11.27051
6.85533	-14.61154	11.27051
6.85938	-14.61154	11.27051
6.86344	-14.61154	11.27051
6.86750	-14.61154	11.27051
6.87155	-14.61154	11.27051
6.87561	-14.61154	11.27051
6.87967	-14.61154	11.27051
6.88373	-14.61154	11.27051
6.88778	-14.61154	11.27051
6.89184	-14.61154	11.27051
6.89590	-14.61154	11.27051
6.89992	-14.61154	11.27051
6.90395	-14.61154	11.27051
6.90801	-14.61154	11.27051
6.91207	-14.61154	11.27051
6.91612	-14.61154	11.27051
6.92018	-14.61154	11.27051
6.92447	-14.61154	11.27051
6.92852	-14.61154	11.27051
6.93258	-14.61154	11.27051
6.93664	-14.61154	11.27051
6.94070	-14.61154	11.27051
6.94476	-14.61154	11.27051
6.94882	-14.61154	11.27051
6.95289	-14.61154	11.27051
6.95695	-14.58957	11.27051
6.96101	-14.61154	11.27051
6.96507	-14.61154	11.27051
6.96913	-14.58957	11.27051
6.97318	-14.58957	11.27051
6.97724	-14.61154	11.27051
6.98130	-14.61154	11.27051
6.98537	-14.58957	11.27051
6.98942	-14.58957	11.27051
6.99348	-14.58957	11.27051
6.99754	-14.58957	11.27051
7.00159	-14.58957	11.27051
7.00566	-14.58957	11.27051
7.00972	-14.58957	11.27051
7.01377	-14.58957	11.27051
7.01783	-14.58957	11.27051
7.02189	-14.58957	11.27051
7.02617	-14.56759	11.27051
7.03023	-14.58957	11.27051
7.03429	-14.58957	11.27051
7.03835	-14.58957	11.27051
7.04241	-14.58957	11.27051
7.04647	-14.58957	11.27051
7.05052	-14.58957	11.27051
7.05461	-14.56759	11.27051
7.05867	-14.56759	11.27051
7.06273	-14.56759	11.27051
7.06679	-14.56759	11.27051
7.07084	-14.56759	11.27051
7.07490	-14.56759	11.27051
7.07896	-14.56759	11.27051
7.08302	-14.56759	11.27051
7.08708	-14.56759	11.27051
7.09113	-14.56759	11.27051
7.09519	-14.56759	11.27051
7.09925	-14.56759	11.27051
7.10331	-14.56759	11.27051
7.10736	-14.56759	11.27051
7.11142	-14.56759	11.27051
7.11548	-14.56759	11.27051
7.11953	-14.56759	11.27051
7.12359	-14.56759	11.27051
7.12787	-14.56759	11.27051
7.13193	-14.56759	11.27051
7.13598	-14.56759	11.27051
7.14005	-14.56759	11.27051
7.14410	-14.56759	11.27051
7.14816	-14.56759	11.27051
7.15222	-14.56759	11.27051
7.15631	-14.56759	11.27051
7.16037	-14.56759	11.27051
7.16443	-14.56759	11.27051
7.16848	-14.56759	11.27051
7.17254	-14.56759	11.27051
7.17660	-14.56759	11.27051
7.18066	-14.54562	11.27051
7.18472	-14.56759	11.27051
7.18878	-14.54562	11.27051
7.19283	-14.56759	11.27051
7.19689	-14.56759	11.27051
7.20095	-14.56759	11.27051
7.20501	-14.54562	11.27051
7.20906	-14.54562	11.27051
7.21312	-14.56759	11.27051
7.21718	-14.56759	11.27051
7.22123	-14.56759	11.27051
7.22529	-14.56759	11.27051
7.22957	-14.54562	11.27051
7.23363	-14.56759	11.27051
7.23769	-14.56759	11.27051
7.24175	-14.56759	11.27051
7.24581	-14.54562	11.27051
7.24987	-14.54562	11.27051
7.25393	-14.56759	11.27051
7.25801	-14.54562	11.27051
7.26207	-14.54562	11.27051
7.26613	-14.56759	11.27051
7.27019	-14.56759	11.27051
7.27425	-14.54562	11.27051
7.27830	-14.54562	11.27051
7.28236	-14.56759	11.27051
7.28642	-14.54562	11.27051
7.29048	-14.54562	11.27051
7.29454	-14.54562	11.27051
7.29859	-14.56759	11.27051
7.30265	-14.56759	11.27051
7.30671	-14.56759	11.27051
7.31076	-14.54562	11.27051
7.31482	-14.54562	11.27051
7.31888	-14.56759	11.27051
7.32294	-14.56759	11.27051
7.32700	-14.54562	11.27051
7.33127	-14.54562	11.27051
7.33533	-14.56759	11.27051
7.33939	-14.54562	11.27051
7.34345	-14.56759	11.27051
7.34751	-14.56759	11.27051
7.35157	-14.56759	11.27051
7.35563	-14.54562	11.27051
7.35973	-14.56759	11.27051
7.36379	-14.54562	11.27051
7.36785	-14.54562	11.27051
7.37190	-14.54562	11.27051
7.37592	-14.56759	11.27051
7.37998	-14.54562	11.27051
7.38404	-14.54562	11.27051
7.38810	-14.56759	11.27051
7.39215	-14.56759	11.27051
7.39621	-14.54562	11.27051
7.40034	-14.56759	11.27051
7.40441	-14.54562	11.27051
7.40847	-14.56759	11.27051
7.41253	-14.56759	11.27051
7.41660	-14.54562	11.27051
7.42066	-14.54562	11.27051
7.42471	-14.54562	11.27051
7.42877	-14.56759	11.27051
7.43305	-14.54562	11.27051
7.43711	-14.54562	11.27051
7.44117	-14.56759	11.27051
7.44523	-14.54562	11.27051
7.44929	-14.54562	11.27051
7.45335	-14.54562	11.27051
7.45741	-14.54562	11.27051
7.46150	-14.54562	11.27051
7.46557	-14.54562	11.27051
7.46963	-14.54562	11.27051
7.47369	-14.54562	11.27051
7.47774	-14.54562	11.27051
7.48180	-14.54562	11.27051
7.48586	-14.54562	11.27051
7.48991	-14.54562	11.27051
7.49397	-14.54562	11.27051
7.49803	-14.54562	11.27051
7.50208	-14.54562	11.27051
7.50614	-14.54562	11.27051
7.51020	-14.54562	11.27051
7.51426	-14.54562	11.27051
7.51832	-14.54562	11.27051
7.52237	-14.54562	11.27051
7.52643	-14.54562	11.27051
7.53049	-14.52365	11.27051
7.53477	-14.54562	11.27051
7.53883	-14.54562	11.27051
7.54288	-14.54562	11.27051
7.54695	-14.54562	11.27051
7.55100	-14.54562	11.27051
7.55506	-14.54562	11.27051
7.55912	-14.54562	11.27051
7.56318	-14.54562	11.27051
7.56725	-14.54562	11.27051
7.57130	-14.54562	11.27051
7.57536	-14.52365	11.27051
7.57942	-14.52365	11.27051
7.58347	-14.52365	11.27051
7.58753	-14.52365	11.27051
7.59159	-14.54562	11.27051
7.59564	-14.54562	11.27051
7.59970	-14.52365	11.27051
7.60376	-14.52365	11.27051
7.60781	-14.54562	11.27051
7.61187	-14.52365	11.27051
7.61597	-14.52365	11.27051
7.62003	-14.52365	11.27051
7.62409	-14.52365	11.27051
7.62815	-14.52365	11.27051
7.63221	-14.52365	11.27051
7.63650	-14.52365	11.27051
7.64056	-14.52365	11.27051
7.64462	-14.52365	11.27051
7.64868	-14.52365	11.27051
7.65273	-14.52365	11.27051
7.65679	-14.52365	11.27051
7.66085	-14.52365	11.27051
7.66492	-14.52365	11.27051
7.66898	-14.52365	11.27051
7.67303	-14.52365	11.27051
7.67709	-14.52365	11.27051
7.68115	-14.52365	11.27051
7.68520	-14.52365	11.27051
7.68926	-14.52365	11.27051
7.69332	-14.52365	11.27051
7.69738	-14.52365	11.27051
7.70143	-14.52365	11.27051
7.70549	-14.50168	11.27051
7.70955	-14.52365	11.27051
7.71361	-14.52365	11.27051
7.71766	-14.52365	11.27051
7.72172	-14.50168	11.27051
7.72578	-14.50168	11.27051
7.72983	-14.50168	11.27051
7.73389	-14.50168	11.27051
7.73818	-14.50168	11.27051
7.74224	-14.50168	11.27051
7.74630	-14.50168	11.27051
7.75035	-14.50168	11.27051
7.75441	-14.50168	11.27051
7.75847	-14.50168	11.27051
7.76252	-14.50168	11.27051
7.76659	-14.50168	11.27051
7.77065	-14.50168	11.27051
7.77471	-14.50168	11.27051
7.77876	-14.50168	11.27051
7.78282	-14.50168	11.27051
7.78688	-14.50168	11.27051
7.79093	-14.50168	11.27051
7.79499	-14.50168	11.27051
7.79905	-14.50168	11.27051
7.80310	-14.47970	11.27051
7.80716	-14.47970	11.27051
7.81123	-14.50168	11.27051
7.81528	-14.47970	11.27051
7.81934	-14.47970	11.27051
7.82340	-14.47970	11.27051
7.82745	-14.47970	11.27051
7.83151	-14.47970	11.27051
7.83557	-14.50168	11.27051
7.83986	-14.50168	11.27051
7.84392	-14.47970	11.27051
7.84798	-14.47970	11.27051
7.85203	-14.47970	11.27051
7.85609	-14.47970	11.27051
7.86015	-14.47970	11.27051
7.86420	-14.47970	11.27051
7.86827	-14.47970	11.27051
7.87233	-14.45773	11.27051
7.87639	-14.47970	11.27051
7.88044	-14.47970	11.27051
7.88450	-14.45773	11.27051
7.88856	-14.45773	11.27051
7.89261	-14.45773	11.27051
7.89667	-14.45773	11.27051
7.90073	-14.45773	11.27051
7.90478	-14.45773	11.27051
7.90884	-14.45773	11.27051
7.91290	-14.45773	11.27051
7.91696	-14.45773	11.27051
7.92101	-14.43576	11.27051
7.92507	-14.43576	11.27051
7.92913	-14.43576	11.27051
7.93318	-14.45773	11.27051
7.93724	-14.43576	11.27051
7.94156	-14.43576	11.27051
7.94562	-14.45773	11.27051
7.94967	-14.45773	11.27051
7.95373	-14.43576	11.27051
7.95779	-14.43576	11.27051
7.96185	-14.43576	11.27051
7.96590	-14.43576	11.27051
7.96997	-14.43576	11.27051
7.97403	-14.43576	11.27051
7.97809	-14.43576	11.27051
7.98215	-14.41379	11.27051
7.98621	-14.43576	11.27051
7.99026	-14.41379	11.27051
7.99432	-14.41379	11.27051
7.99838	-14.41379	11.27051
8.00244	-14.41379	11.27051
8.00650	-14.41379	11.27051
8.01056	-14.41379	11.27051
8.01461	-14.41379	11.27051
8.01867	-14.41379	11.27051
8.02273	-14.41379	11.27051
8.02679	-14.41379	11.27051
8.03084	-14.41379	11.27051
8.03490	-14.41379	11.27051
8.03896	-14.41379	11.27051
8.04325	-14.41379	11.27051
8.04731	-14.39181	11.27051
8.05137	-14.39181	11.27051
8.05543	-14.41379	11.27051
8.05949	-14.39181	11.27051
8.06355	-14.39181	11.27051
8.06761	-14.39181	11.27051
8.07171	-14.39181	11.27051
8.07577	-14.39181	11.27051
8.07983	-14.39181	11.27051
8.08389	-14.39181	11.27051
8.08792	-14.39181	11.27051
8.09198	-14.39181	11.27051
8.09604	-14.39181	11.27051
8.10010	-14.39181	11.27051
8.10415	-14.39181	11.27051
8.10821	-14.39181	11.27051
8.11227	-14.39181	11.27051
8.11633	-14.39181	11.27051
8.12038	-14.39181	11.27051
8.12444	-14.39181	11.27051
8.12849	-14.36984	11.27051
8.13256	-14.36984	11.27051
8.13662	-14.36984	11.27051
8.14067	-14.36984	11.27051
8.14495	-14.36984	11.27051
8.14901	-14.36984	11.27051
8.15307	-14.39181	11.27051
8.15712	-14.36984	11.27051
8.16118	-14.36984	11.27051
8.16524	-14.36984	11.27051
8.16929	-14.36984	11.27051
8.17336	-14.36984	11.27051
8.17742	-14.36984	11.27051
8.18148	-14.36984	11.27051
8.18553	-14.36984	11.27051
8.18959	-14.36984	11.27051
8.19365	-14.36984	11.27051
8.19770	-14.34787	11.27051
8.20176	-14.36984	11.27051
8.20582	-14.36984	11.27051
8.20987	-14.36984	11.27051
8.21393	-14.34787	11.27051
8.21799	-14.36984	11.27051
8.22204	-14.34787	11.27051
8.22610	-14.34787	11.27051
8.23016	-14.34787	11.27051
8.23421	-14.36984	11.27051
8.23827	-14.34787	11.27051
8.24233	-14.34787	11.27051
8.24662	-14.34787	11.27051
8.25067	-14.34787	11.27051
8.25473	-14.34787	11.27051
8.25879	-14.36984	11.27051
8.26285	-14.34787	11.27051
8.26690	-14.34787	11.27051
8.27096	-14.34787	11.27051
8.27504	-14.36984	11.27051
8.27910	-14.34787	11.27051
8.28315	-14.34787	11.27051
8.28721	-14.36984	11.27051
8.29127	-14.36984	11.27051
8.29533	-14.34787	11.27051
8.29938	-14.34787	11.27051
8.30344	-14.34787	11.27051
8.30750	-14.34787	11.27051
8.31155	-14.34787	11.27051
8.31562	-14.34787	11.27051
8.31968	-14.34787	11.27051
8.32373	-14.34787	11.27051
8.32779	-14.34787	11.27051
8.33185	-14.34787	11.27051
8.33591	-14.34787	11.27051
8.33992	-14.34787	11.27051
8.34398	-14.34787	11.27051
8.34827	-14.34787	11.27051
8.35233	-14.34787	11.27051
8.35639	-14.34787	11.27051
8.36045	-14.34787	11.27051
8.36450	-14.34787	11.27051
8.36856	-14.34787	11.27051
8.37262	-14.34787	11.27051
8.37668	-14.34787	11.27051
8.38074	-14.34787	11.27051
8.38479	-14.34787	11.27051
8.38885	-14.34787	11.27051
8.39291	-14.34787	11.27051
8.39697	-14.34787	11.27051
8.40102	-14.34787	11.27051
8.40508	-14.34787	11.27051
8.40914	-14.34787	11.27051
8.41319	-14.34787	11.27051
8.41726	-14.34787	11.27051
8.42133	-14.34787	11.27051
8.42550	-14.36984	11.27051
8.42959	-14.34787	11.27051
8.43365	-14.34787	11.27051
8.43771	-14.36984	11.27051
8.44178	-14.36984	11.27051
8.44583	-14.34787	11.27051
8.45012	-14.34787	11.27051
8.45418	-14.36984	11.27051
8.45823	-14.34787	11.27051
8.46229	-14.36984	11.27051
8.46635	-14.36984	11.27051
8.47041	-14.34787	11.27051
8.47446	-14.36984	11.27051
8.47853	-14.36984	11.27051
8.48259	-14.36984	11.27051
8.48665	-14.34787	11.27051
8.49071	-14.36984	11.27051
8.49476	-14.36984	11.27051
8.49882	-14.36984	11.27051
8.50288	-14.36984	11.27051
8.50693	-14.36984	11.27051
8.51099	-14.36984	11.27051
8.51505	-14.36984	11.27051
8.51913	-14.36984	11.27051
8.52319	-14.36984	11.27051
8.52725	-14.36984	11.27051
8.53130	-14.36984	11.27051
8.53536	-14.36984	11.27051
8.53942	-14.36984	11.27051
8.54347	-14.36984	11.27051
8.54753	-14.36984	11.27051
8.55180	-14.36984	11.27051
8.55586	-14.36984	11.27051
8.55992	-14.36984	11.27051
8.56398	-14.39181	11.27051
8.56803	-14.39181	11.27051
8.57209	-14.36984	11.27051
8.57615	-14.39181	11.27051
8.58021	-14.36984	11.27051
8.58426	-14.36984	11.27051
8.58832	-14.39181	11.27051
8.59238	-14.39181	11.27051
8.59643	-14.39181	11.27051
8.60049	-14.39181	11.27051
8.60455	-14.39181	11.27051
8.60860	-14.39181	11.27051
8.61266	-14.36984	11.27051
8.61673	-14.39181	11.27051
8.62082	-14.36984	11.27051
8.62487	-14.39181	11.27051
8.62893	-14.39181	11.27051
8.63299	-14.39181	11.27051
8.63710	-14.39181	11.27051
8.64117	-14.39181	11.27051
8.64523	-14.39181	11.27051
8.64929	-14.39181	11.27051
8.65367	-14.39181	11.27051
8.65773	-14.39181	11.27051
8.66179	-14.39181	11.27051
8.66584	-14.39181	11.27051
8.66990	-14.39181	11.27051
8.67396	-14.39181	11.27051
8.67801	-14.39181	11.27051
8.68208	-14.39181	11.27051
8.68614	-14.39181	11.27051
8.69020	-14.39181	11.27051
8.69425	-14.39181	11.27051
8.69831	-14.39181	11.27051
8.70237	-14.39181	11.27051
8.70642	-14.39181	11.27051
8.71048	-14.39181	11.27051
8.71454	-14.41379	11.27051
8.71859	-14.39181	11.27051
8.72265	-14.39181	11.27051
8.72670	-14.41379	11.27051
8.73076	-14.39181	11.27051
8.73483	-14.41379	11.27051
8.73891	-14.39181	11.27051
8.74299	-14.39181	11.27051
8.74704	-14.39181	11.27051
8.75111	-14.41379	11.27051
8.75538	-14.39181	11.27051
8.75944	-14.41379	11.27051
8.76349	-14.41379	11.27051
8.76755	-14.41379	11.27051
8.77161	-14.41379	11.27051
8.77566	-14.41379	11.27051
8.77972	-14.41379	11.27051
8.78379	-14.41379	11.27051
8.78784	-14.41379	11.27051
8.79190	-14.41379	11.27051
8.79592	-14.41379	11.27051
8.79999	-14.41379	11.27051
8.80405	-14.41379	11.27051
8.80810	-14.39181	11.27051
8.81216	-14.41379	11.27051
8.81622	-14.41379	11.27051
8.82027	-14.41379	11.27051
8.82433	-14.41379	11.27051
8.82839	-14.41379	11.27051
8.83244	-14.41379	11.27051
8.83650	-14.43576	11.27051
8.84056	-14.41379	11.27051
8.84461	-14.43576	11.27051
8.84867	-14.43576	11.27051
8.85273	-14.41379	11.27051
8.85700	-14.41379	11.27051
8.86106	-14.43576	11.27051
8.86512	-14.41379	11.27051
8.86917	-14.41379	11.27051
8.87323	-14.43576	11.27051
8.87729	-14.41379	11.27051
8.88134	-14.41379	11.27051
8.88549	-14.43576	11.27051
8.88955	-14.41379	11.27051
8.89361	-14.41379	11.27051
8.89769	-14.43576	11.27051
8.90174	-14.43576	11.27051
8.90580	-14.43576	11.27051
8.90986	-14.43576	11.27051
8.91392	-14.43576	11.27051
8.91798	-14.43576	11.27051
8.92204	-14.43576	11.27051
8.92609	-14.43576	11.27051
8.93015	-14.43576	11.27051
8.93421	-14.43576	11.27051
8.93826	-14.43576	11.27051
8.94232	-14.43576	11.27051
8.94638	-14.43576	11.27051
8.95043	-14.43576	11.27051
8.95449	-14.43576	11.27051
8.95876	-14.45773	11.27051
8.96282	-14.43576	11.27051
8.96687	-14.43576	11.27051
8.97093	-14.43576	11.27051
8.97498	-14.43576	11.27051
8.97904	-14.43576	11.27051
8.98310	-14.43576	11.27051
8.98719	-14.43576	11.27051
8.99125	-14.43576	11.27051
8.99531	-14.43576	11.27051
8.99937	-14.43576	11.27051
9.00343	-14.43576	11.27051
9.00749	-14.45773	11.27051
9.01155	-14.43576	11.27051
9.01560	-14.45773	11.27051
9.01966	-14.45773	11.27051
9.02372	-14.45773	11.27051
9.02777	-14.43576	11.27051
9.03183	-14.45773	11.27051
9.03589	-14.45773	11.27051
9.03992	-14.43576	11.27051
9.04398	-14.43576	11.27051
9.04804	-14.43576	11.27051
9.05210	-14.45773	11.27051
9.05615	-14.45773	11.27051
9.06044	-14.45773	11.27051
9.06450	-14.45773	11.27051
9.06856	-14.45773	11.27051
9.07261	-14.43576	11.27051
9.07667	-14.43576	11.27051
9.08073	-14.45773	11.27051
9.08478	-14.45773	11.27051
9.08886	-14.45773	11.27051
9.09292	-14.45773	11.27051
9.09705	-14.43576	11.27051
9.10111	-14.45773	11.27051
9.10518	-14.45773	11.27051
9.10924	-14.45773	11.27051
9.11332	-14.43576	11.27051
9.11738	-14.43576	11.27051
9.12144	-14.43576	11.27051
9.12551	-14.43576	11.27051
9.12957	-14.43576	11.27051
9.13363	-14.43576	11.27051
9.13768	-14.43576	11.27051
9.14174	-14.45773	11.27051
9.14580	-14.43576	11.27051
9.14986	-14.43576	11.27051
9.15391	-14.43576	11.27051
9.15797	-14.43576	11.27051
9.16227	-14.43576	11.27051
9.16633	-14.43576	11.27051
9.17039	-14.43576	11.27051
9.17445	-14.43576	11.27051
9.17851	-14.43576	11.27051
9.18257	-14.43576	11.27051
9.18663	-14.43576	11.27051
9.19069	-14.43576	11.27051
9.19475	-14.43576	11.27051
9.19881	-14.43576	11.27051
9.20288	-14.43576	11.27051
9.20694	-14.43576	11.27051
9.21100	-14.43576	11.27051
9.21505	-14.43576	11.27051
9.21912	-14.43576	11.27051
9.22318	-14.43576	11.27051
9.22724	-14.43576	11.27051
9.23130	-14.43576	11.27051
9.23537	-14.43576	11.27051
9.23943	-14.43576	11.27051
9.24348	-14.43576	11.27051
9.24754	-14.41379	11.27051
9.25161	-14.43576	11.27051
9.25567	-14.43576	11.27051
9.25972	-14.43576	11.27051
9.26404	-14.43576	11.27051
9.26810	-14.43576	11.27051
9.27216	-14.43576	11.27051
9.27622	-14.43576	11.27051
9.28028	-14.43576	11.27051
9.28434	-14.41379	11.27051
9.28840	-14.43576	11.27051
9.29246	-14.43576	11.27051
9.29652	-14.41379	11.27051
9.30058	-14.41379	11.27051
9.30464	-14.41379	11.27051
9.30870	-14.41379	11.27051
9.31276	-14.41379	11.27051
9.31682	-14.41379	11.27051
9.32088	-14.41379	11.27051
9.32494	-14.43576	11.27051
9.32906	-14.41379	11.27051
9.33312	-14.41379	11.27051
9.33718	-14.43576	11.27051
9.34123	-14.43576	11.27051
9.34530	-14.41379	11.27051
9.34936	-14.41379	11.27051
9.35342	-14.41379	11.27051
9.35747	-14.41379	11.27051
9.36154	-14.43576	11.27051
9.36584	-14.43576	11.27051
9.36990	-14.41379	11.27051
9.37396	-14.41379	11.27051
9.37802	-14.43576	11.27051
9.38208	-14.41379	11.27051
9.38614	-14.41379	11.27051
9.39020	-14.41379	11.27051
9.39428	-14.41379	11.27051
9.39834	-14.41379	11.27051
9.40240	-14.41379	11.27051
9.40646	-14.41379	11.27051
9.41053	-14.41379	11.27051
9.41459	-14.41379	11.27051
9.41864	-14.41379	11.27051
9.42271	-14.41379	11.27051
9.42677	-14.41379	11.27051
9.43082	-14.41379	11.27051
9.43488	-14.41379	11.27051
9.43894	-14.41379	11.27051
9.44300	-14.43576	11.27051
9.44705	-14.43576	11.27051
9.45111	-14.43576	11.27051
9.45517	-14.41379	11.27051
9.45922	-14.43576	11.27051
9.46328	-14.43576	11.27051
9.46757	-14.43576	11.27051
9.47163	-14.43576	11.27051
9.47568	-14.43576	11.27051
9.47974	-14.43576	11.27051
9.48380	-14.43576	11.27051
9.48786	-14.43576	11.27051
9.49192	-14.41379	11.27051
9.49599	-14.41379	11.27051
9.50004	-14.43576	11.27051
9.50410	-14.43576	11.27051
9.50817	-14.41379	11.27051
9.51223	-14.43576	11.27051
9.51629	-14.43576	11.27051
9.52035	-14.43576	11.27051
9.52441	-14.43576	11.27051
9.52847	-14.43576	11.27051
9.53253	-14.43576	11.27051
9.53659	-14.43576	11.27051
9.54065	-14.43576	11.27051
9.54471	-14.43576	11.27051
9.54877	-14.43576	11.27051
9.55283	-14.43576	11.27051
9.55689	-14.45773	11.27051
9.56095	-14.45773	11.27051
9.56501	-14.45773	11.27051
9.56931	-14.43576	11.27051
9.57337	-14.43576	11.27051
9.57743	-14.45773	11.27051
9.58149	-14.45773	11.27051
9.58555	-14.45773	11.27051
9.58961	-14.43576	11.27051
9.59367	-14.45773	11.27051
9.59779	-14.45773	11.27051
9.60185	-14.45773	11.27051
9.60591	-14.45773	11.27051
9.60997	-14.45773	11.27051
9.61403	-14.45773	11.27051
9.61809	-14.45773	11.27051
9.62214	-14.45773	11.27051
9.62621	-14.45773	11.27051
9.63027	-14.45773	11.27051
9.63432	-14.45773	11.27051
9.63838	-14.45773	11.27051
9.64244	-14.45773	11.27051
9.64650	-14.45773	11.27051
9.65056	-14.47970	11.27051
9.65462	-14.45773	11.27051
9.65868	-14.45773	11.27051
9.66274	-14.47970	11.27051
9.66679	-14.47970	11.27051
9.67108	-14.45773	11.27051
9.67514	-14.47970	11.27051
9.67920	-14.47970	11.27051
9.68327	-14.47970	11.27051
9.68733	-14.45773	11.27051
9.69138	-14.45773	11.27051
9.69544	-14.47970	11.27051
9.69954	-14.47970	11.27051
9.70360	-14.47970	11.27051
9.70766	-14.47970	11.27051
9.71171	-14.47970	11.27051
9.71577	-14.47970	11.27051
9.71983	-14.50168	11.27051
9.72389	-14.47970	11.27051
9.72793	-14.50168	11.27051
9.73199	-14.50168	11.27051
9.73605	-14.50168	11.27051
9.74010	-14.50168	11.27051
9.74416	-14.50168	11.27051
9.74822	-14.47970	11.27051
9.75228	-14.47970	11.27051
9.75634	-14.50168	11.27051
9.76039	-14.50168	11.27051
9.76445	-14.50168	11.27051
9.76851	-14.52365	11.27051
9.77279	-14.52365	11.27051
9.77685	-14.52365	11.27051
9.78090	-14.50168	11.27051
9.78497	-14.52365	11.27051
9.78903	-14.52365	11.27051
9.79309	-14.52365	11.27051
9.79715	-14.52365	11.27051
9.80122	-14.52365	11.27051
9.80528	-14.52365	11.27051
9.80934	-14.52365	11.27051
9.81340	-14.54562	11.27051
9.81746	-14.54562	11.27051
9.82152	-14.52365	11.27051
9.82558	-14.52365	11.27051
9.82964	-14.54562	11.27051
9.83370	-14.54562	11.27051
9.83776	-14.54562	11.27051
9.84182	-14.54562	11.27051
9.84588	-14.54562	11.27051
9.84994	-14.54562	11.27051
9.85399	-14.56759	11.27051
9.85805	-14.54562	11.27051
9.86211	-14.54562	11.27051
9.86617	-14.56759	11.27051
9.87022	-14.56759	11.27051
9.87461	-14.56759	11.27051
9.87872	-14.58957	11.27051
9.88285	-14.56759	11.27051
9.88694	-14.56759	11.27051
9.89100	-14.58957	11.27051
9.89506	-14.58957	11.27051
9.89915	-14.58957	11.27051
9.90323	-14.58957	11.27051
9.90730	-14.58957	11.27051
9.91136	-14.58957	11.27051
9.91542	-14.58957	11.27051
9.91948	-14.61154	11.27051
9.92354	-14.61154	11.27051
9.92760	-14.61154	11.27051
9.93166	-14.61154	11.27051
9.93572	-14.61154	11.27051
9.93978	-14.61154	11.27051
9.94383	-14.61154	11.27051
9.94790	-14.61154	11.27051
9.95192	-14.63351	11.27051
9.95598	-14.61154	11.27051
9.96004	-14.61154	11.27051
9.96410	-14.63351	11.27051
9.96816	-14.63351	11.27051
9.97221	-14.63351	11.27051
9.97647	-14.63351	11.27051
9.98053	-14.63351	11.27051
9.98459	-14.63351	11.27051
9.98865	-14.65548	11.27051
9.99271	-14.65548	11.27051
9.99676	-14.65548	11.27051
10.00082	-14.65548	11.27051
10.00491	-14.67746	11.27051
10.00897	-14.65548	11.27051
10.01312	-14.65548	11.27051
10.01718	-14.67746	11.27051
10.02123	-14.65548	11.27051
10.02529	-14.67746	11.27051
10.02935	-14.67746	11.27051
10.03341	-14.67746	11.27051
10.03746	-14.67746	11.27051
10.04152	-14.67746	11.27051
10.04558	-14.69943	11.27051
10.04964	-14.69943	11.27051
10.05370	-14.69943	11.27051
10.05776	-14.69943	11.27051
10.06181	-14.69943	11.27051
10.06588	-14.69943	11.27051
10.06993	-14.69943	11.27051
10.07399	-14.69943	11.27051
10.07827	-14.69943	11.27051
10.08234	-14.69943	11.27051
10.08639	-14.72140	11.27051
10.09046	-14.72140	11.27051
10.09452	-14.72140	11.27051
10.09858	-14.72140	11.27051
10.10264	-14.72140	11.27051
10.10672	-14.72140	11.27051
10.11078	-14.72140	11.27051
10.11485	-14.72140	11.27051
10.11890	-14.72140	11.27051
10.12296	-14.72140	11.27051
10.12702	-14.74338	11.27051
10.13108	-14.72140	11.27051
10.13514	-14.74338	11.27051
10.13920	-14.74338	11.27051
10.14326	-14.74338	11.27051
10.14733	-14.72140	11.27051
10.15139	-14.74338	11.27051
10.15544	-14.74338	11.27051
10.15950	-14.74338	11.27051
10.16356	-14.74338	11.27051
10.16762	-14.74338	11.27051
10.17168	-14.74338	11.27051
10.17574	-14.74338	11.27051
10.18005	-14.74338	11.27051
10.18411	-14.74338	11.27051
10.18817	-14.74338	11.27051
10.19223	-14.74338	11.27051
10.19646	-14.74338	11.27051
10.20052	-14.74338	11.27051
10.20458	-14.74338	11.27051
10.20865	-14.74338	11.27051
10.21272	-14.74338	11.27051
10.21678	-14.74338	11.27051
10.22084	-14.76535	11.27051
10.22490	-14.74338	11.27051
10.22896	-14.74338	11.27051
10.23302	-14.74338	11.27051
10.23708	-14.76535	11.27051
10.24114	-14.74338	11.27051
10.24519	-14.74338	11.27051
10.24925	-14.74338	11.27051
10.25331	-14.74338	11.27051
10.25737	-14.74338	11.27051
10.26143	-14.76535	11.27051
10.26548	-14.74338	11.27051
10.26954	-14.74338	11.27051
10.27360	-14.74338	11.27051
10.27765	-14.74338	11.27051
10.28194	-14.74338	11.27051
10.28600	-14.74338	11.27051
10.29005	-14.74338	11.27051
10.29412	-14.74338	11.27051
10.29818	-14.74338	11.27051
10.30223	-14.74338	11.27051
10.30629	-14.76535	11.27051
10.31036	-14.74338	11.27051
10.31443	-14.74338	11.27051
10.31849	-14.74338	11.27051
10.32255	-14.74338	11.27051
10.32661	-14.74338	11.27051
10.33067	-14.76535	11.27051
10.33472	-14.76535	11.27051
10.33879	-14.74338	11.27051
10.34284	-14.74338	11.27051
10.34691	-14.74338	11.27051
10.35096	-14.74338	11.27051
10.35502	-14.74338	11.27051
10.35908	-14.74338	11.27051
10.36314	-14.74338	11.27051
10.36719	-14.72140	11.27051
10.37125	-14.74338	11.27051
10.37531	-14.72140	11.27051
10.37937	-14.72140	11.27051
10.38365	-14.72140	11.27051
10.38772	-14.72140	11.27051
10.39177	-14.72140	11.27051
10.39584	-14.72140	11.27051
10.39990	-14.72140	11.27051
10.40392	-14.72140	11.27051
10.40798	-14.72140	11.27051
10.41206	-14.72140	11.27051
10.41612	-14.72140	11.27051
10.42018	-14.72140	11.27051
10.42424	-14.72140	11.27051
10.42830	-14.72140	11.27051
10.43235	-14.69943	11.27051
10.43642	-14.69943	11.27051
10.44048	-14.69943	11.27051
10.44454	-14.69943	11.27051
10.44860	-14.69943	11.27051
10.45266	-14.69943	11.27051
10.45672	-14.69943	11.27051
10.46077	-14.69943	11.27051
10.46483	-14.69943	11.27051
10.46889	-14.69943	11.27051
10.47295	-14.69943	11.27051
10.47700	-14.67746	11.27051
10.48106	-14.69943	11.27051
10.48535	-14.69943	11.27051
10.48941	-14.67746	11.27051
10.49347	-14.67746	11.27051
10.49753	-14.67746	11.27051
10.50159	-14.65548	11.27051
10.50565	-14.67746	11.27051
10.50971	-14.67746	11.27051
10.51380	-14.67746	11.27051
10.51786	-14.65548	11.27051
10.52192	-14.67746	11.27051
10.52598	-14.65548	11.27051
10.53004	-14.65548	11.27051
10.53410	-14.65548	11.27051
10.53818	-14.65548	11.27051
10.54224	-14.65548	11.27051
10.54630	-14.65548	11.27051
10.55036	-14.65548	11.27051
10.55442	-14.65548	11.27051
10.55848	-14.65548	11.27051
10.56253	-14.65548	11.27051
10.56659	-14.63351	11.27051
10.57065	-14.63351	11.27051
10.57471	-14.63351	11.27051
10.57876	-14.63351	11.27051
10.58282	-14.63351	11.27051
10.58708	-14.63351	11.27051
10.59114	-14.63351	11.27051
10.59519	-14.63351	11.27051
10.59925	-14.63351	11.27051
10.60331	-14.63351	11.27051
10.60737	-14.63351	11.27051
10.61143	-14.63351	11.27051
10.61608	-14.63351	11.27051
10.62023	-14.63351	11.27051
10.62430	-14.61154	11.27051
10.62836	-14.63351	11.27051
10.63242	-14.61154	11.27051
10.63649	-14.61154	11.27051
10.64054	-14.61154	11.27051
10.64460	-14.61154	11.27051
10.64866	-14.61154	11.27051
10.65272	-14.61154	11.27051
10.65678	-14.61154	11.27051
10.66083	-14.61154	11.27051
10.66489	-14.61154	11.27051
10.66895	-14.61154	11.27051
10.67300	-14.61154	11.27051
10.67706	-14.58957	11.27051
10.68112	-14.58957	11.27051
10.68517	-14.61154	11.27051
10.68947	-14.58957	11.27051
10.69353	-14.61154	11.27051
10.69759	-14.61154	11.27051
10.70165	-14.61154	11.27051
10.70571	-14.58957	11.27051
10.70976	-14.58957	11.27051
10.71382	-14.61154	11.27051
10.71791	-14.58957	11.27051
10.72197	-14.58957	11.27051
10.72603	-14.58957	11.27051
10.73009	-14.61154	11.27051
10.73415	-14.58957	11.27051
10.73821	-14.58957	11.27051
10.74227	-14.58957	11.27051
10.74633	-14.58957	11.27051
10.75039	-14.58957	11.27051
10.75445	-14.58957	11.27051
10.75851	-14.58957	11.27051
10.76256	-14.58957	11.27051
10.76662	-14.58957	11.27051
10.77069	-14.58957	11.27051
10.77480	-14.58957	11.27051
10.77889	-14.58957	11.27051
10.78296	-14.58957	11.27051
10.78701	-14.58957	11.27051
10.79145	-14.58957	11.27051
10.79552	-14.61154	11.27051
10.79957	-14.58957	11.27051
10.80364	-14.58957	11.27051
10.80770	-14.58957	11.27051
10.81176	-14.58957	11.27051
10.81582	-14.58957	11.27051
10.81991	-14.58957	11.27051
10.82397	-14.61154	11.27051
10.82803	-14.58957	11.27051
10.83208	-14.58957	11.27051
10.83614	-14.58957	11.27051
10.84020	-14.61154	11.27051
10.84425	-14.58957	11.27051
10.84831	-14.61154	11.27051
10.85237	-14.58957	11.27051
10.85643	-14.58957	11.27051
10.86048	-14.58957	11.27051
10.86454	-14.61154	11.27051
10.86860	-14.58957	11.27051
10.87266	-14.58957	11.27051
10.87671	-14.61154	11.27051
10.88077	-14.61154	11.27051
10.88483	-14.61154	11.27051
10.88889	-14.61154	11.27051
10.89317	-14.61154	11.27051
10.89723	-14.61154	11.27051
10.90129	-14.61154	11.27051
10.90535	-14.61154	11.27051
10.90940	-14.61154	11.27051
10.91346	-14.61154	11.27051
10.91752	-14.61154	11.27051
10.92158	-14.61154	11.27051
10.92563	-14.61154	11.27051
10.92969	-14.61154	11.27051
10.93375	-14.61154	11.27051
10.93780	-14.61154	11.27051
10.94189	-14.61154	11.27051
10.94595	-14.63351	11.27051
10.95001	-14.61154	11.27051
10.95407	-14.63351	11.27051
10.95812	-14.63351	11.27051
10.96218	-14.63351	11.27051
10.96624	-14.63351	11.27051
10.97030	-14.63351	11.27051
10.97435	-14.63351	11.27051
10.97841	-14.63351	11.27051
10.98247	-14.63351	11.27051
10.98653	-14.63351	11.27051
10.99058	-14.63351	11.27051
10.99488	-14.63351	11.27051
10.99894	-14.65548	11.27051
11.00300	-14.63351	11.27051
11.00706	-14.63351	11.27051
11.01112	-14.63351	11.27051
11.01517	-14.65548	11.27051
11.01923	-14.63351	11.27051
11.02331	-14.63351	11.27051
11.02736	-14.63351	11.27051
11.03142	-14.65548	11.27051
11.03548	-14.65548	11.27051
11.03954	-14.65548	11.27051
11.04360	-14.63351	11.27051
11.04767	-14.63351	11.27051
11.05173	-14.65548	11.27051
11.05578	-14.65548	11.27051
11.05984	-14.65548	11.27051
11.06390	-14.65548	11.27051
11.06792	-14.65548	11.27051
11.07198	-14.65548	11.27051
11.07604	-14.65548	11.27051
11.08009	-14.67746	11.27051
11.08415	-14.65548	11.27051
11.08821	-14.65548	11.27051
11.09226	-14.65548	11.27051
11.09656	-14.67746	11.27051
11.10062	-14.67746	11.27051
11.10467	-14.67746	11.27051
11.10873	-14.67746	11.27051
11.11279	-14.67746	11.27051
11.11685	-14.67746	11.27051
11.12090	-14.67746	11.27051
11.12496	-14.67746	11.27051
11.12902	-14.67746	11.27051
11.13308	-14.67746	11.27051
11.13714	-14.67746	11.27051
11.14120	-14.67746	11.27051
11.14525	-14.67746	11.27051
11.14931	-14.69943	11.27051
11.15337	-14.67746	11.27051
11.15743	-14.67746	11.27051
11.16149	-14.69943	11.27051
11.16554	-14.69943	11.27051
11.16960	-14.67746	11.27051
11.17366	-14.67746	11.27051
11.17771	-14.69943	11.27051
11.18177	-14.69943	11.27051
11.18583	-14.69943	11.27051
11.18988	-14.69943	11.27051
11.19394	-14.69943	11.27051
11.19825	-14.69943	11.27051
11.20231	-14.69943	11.27051
11.20637	-14.69943	11.27051
11.21043	-14.69943	11.27051
11.21449	-14.69943	11.27051
11.21856	-14.69943	11.27051
11.22262	-14.69943	11.27051
11.22669	-14.69943	11.27051
11.23075	-14.69943	11.27051
11.23481	-14.69943	11.27051
11.23887	-14.69943	11.27051
11.24293	-14.69943	11.27051
11.24699	-14.69943	11.27051
11.25106	-14.69943	11.27051
11.25511	-14.69943	11.27051
11.25917	-14.69943	11.27051
11.26323	-14.67746	11.27051
11.26730	-14.67746	11.27051
11.27136	-14.72140	11.27051
11.27542	-14.69943	11.27051
11.27947	-14.69943	11.27051
11.28354	-14.72140	11.27051
11.28760	-14.72140	11.27051
11.29165	-14.69943	11.27051
11.29571	-14.69943	11.27051
11.30002	-14.69943	11.27051
11.30408	-14.69943	11.27051
11.30814	-14.69943	11.27051
11.31220	-14.69943	11.27051
11.31626	-14.69943	11.27051
11.32032	-14.69943	11.27051
11.32437	-14.69943	11.27051
11.32843	-14.69943	11.27051
11.33250	-14.69943	11.27051
11.33656	-14.69943	11.27051
11.34061	-14.69943	11.27051
11.34467	-14.69943	11.27051
11.34873	-14.69943	11.27051
11.35279	-14.69943	11.27051
11.35685	-14.69943	11.27051
11.36091	-14.69943	11.27051
11.36497	-14.69943	11.27051
11.36903	-14.69943	11.27051
11.37308	-14.69943	11.27051
11.37714	-14.69943	11.27051
11.38120	-14.69943	11.27051
11.38525	-14.69943	11.27051
11.38931	-14.69943	11.27051
11.39337	-14.69943	11.27051
11.39743	-14.69943	11.27051
11.40171	-14.69943	11.27051
11.40577	-14.69943	11.27051
11.40982	-14.69943	11.27051
11.41388	-14.69943	11.27051
11.41794	-14.69943	11.27051
11.42200	-14.69943	11.27051
11.42605	-14.69943	11.27051
11.43012	-14.69943	11.27051
11.43417	-14.69943	11.27051
11.43823	-14.69943	11.27051
11.44229	-14.69943	11.27051
11.44635	-14.69943	11.27051
11.45041	-14.69943	11.27051
11.45447	-14.69943	11.27051
11.45852	-14.69943	11.27051
11.46258	-14.67746	11.27051
11.46664	-14.67746	11.27051
11.47070	-14.69943	11.27051
11.47475	-14.69943	11.27051
11.47881	-14.69943	11.27051
11.48287	-14.67746	11.27051
11.48692	-14.67746	11.27051
11.49098	-14.69943	11.27051
11.49504	-14.67746	11.27051
11.49910	-14.67746	11.27051
11.50338	-14.67746	11.27051
11.50744	-14.67746	11.27051
11.51149	-14.67746	11.27051
11.51555	-14.67746	11.27051
11.51961	-14.67746	11.27051
11.52367	-14.67746	11.27051
11.52772	-14.67746	11.27051
11.53179	-14.67746	11.27051
11.53585	-14.67746	11.27051
11.53991	-14.67746	11.27051
11.54393	-14.67746	11.27051
11.54799	-14.67746	11.27051
11.55204	-14.65548	11.27051
11.55610	-14.67746	11.27051
11.56016	-14.67746	11.27051
11.56422	-14.65548	11.27051
11.56827	-14.65548	11.27051
11.57233	-14.67746	11.27051
11.57639	-14.67746	11.27051
11.58044	-14.65548	11.27051
11.58450	-14.65548	11.27051
11.58856	-14.65548	11.27051
11.59262	-14.65548	11.27051
11.59667	-14.65548	11.27051
11.60073	-14.65548	11.27051
11.60500	-14.65548	11.27051
11.60906	-14.65548	11.27051
11.61312	-14.65548	11.27051
11.61718	-14.65548	11.27051
11.62124	-14.65548	11.27051
11.62529	-14.65548	11.27051
11.62935	-14.65548	11.27051
11.63341	-14.65548	11.27051
11.63747	-14.65548	11.27051
11.64153	-14.65548	11.27051
11.64559	-14.65548	11.27051
11.64965	-14.65548	11.27051
11.65371	-14.65548	11.27051
11.65777	-14.65548	11.27051
11.66183	-14.65548	11.27051
11.66589	-14.65548	11.27051
11.66994	-14.65548	11.27051
11.67400	-14.63351	11.27051
11.67806	-14.65548	11.27051
11.68212	-14.63351	11.27051
11.68617	-14.63351	11.27051
11.69023	-14.63351	11.27051
11.69429	-14.63351	11.27051
11.69834	-14.63351	11.27051
11.70240	-14.63351	11.27051
11.70668	-14.63351	11.27051
11.71074	-14.63351	11.27051
11.71480	-14.63351	11.27051
11.71885	-14.63351	11.27051
11.72291	-14.63351	11.27051
11.72697	-14.63351	11.27051
11.73103	-14.63351	11.27051
11.73510	-14.63351	11.27051
11.73917	-14.63351	11.27051
11.74322	-14.63351	11.27051
11.74729	-14.63351	11.27051
11.75135	-14.63351	11.27051
11.75541	-14.63351	11.27051
11.75947	-14.61154	11.27051
11.76353	-14.63351	11.27051
11.76758	-14.61154	11.27051
11.77164	-14.61154	11.27051
11.77570	-14.61154	11.27051
11.77975	-14.61154	11.27051
11.78381	-14.63351	11.27051
11.78787	-14.63351	11.27051
11.79192	-14.61154	11.27051
11.79598	-14.61154	11.27051
11.80003	-14.61154	11.27051
11.80409	-14.61154	11.27051
11.80838	-14.61154	11.27051
11.81244	-14.61154	11.27051
11.81649	-14.61154	11.27051
11.82055	-14.61154	11.27051
11.82461	-14.61154	11.27051
11.82867	-14.61154	11.27051
11.83272	-14.61154	11.27051
11.83679	-14.61154	11.27051
11.84085	-14.61154	11.27051
11.84491	-14.61154	11.27051
11.84897	-14.61154	11.27051
11.85303	-14.61154	11.27051
11.85708	-14.61154	11.27051
11.86114	-14.58957	11.27051
11.86520	-14.58957	11.27051
11.86926	-14.58957	11.27051
11.87332	-14.61154	11.27051
11.87737	-14.58957	11.27051
11.88143	-14.58957	11.27051
11.88549	-14.61154	11.27051
11.88954	-14.58957	11.27051
11.89360	-14.58957	11.27051
11.89766	-14.61154	11.27051
11.90171	-14.61154	11.27051
11.90577	-14.58957	11.27051
11.91005	-14.58957	11.27051
11.91411	-14.58957	11.27051
11.91817	-14.58957	11.27051
11.92223	-14.58957	11.27051
11.92628	-14.58957	11.27051
11.93034	-14.58957	11.27051
11.93440	-14.58957	11.27051
11.93846	-14.58957	11.27051
11.94252	-14.56759	11.27051
11.94658	-14.58957	11.27051
11.95064	-14.58957	11.27051
11.95470	-14.58957	11.27051
11.95876	-14.56759	11.27051
11.96282	-14.58957	11.27051
11.96688	-14.56759	11.27051
11.97093	-14.56759	11.27051
11.97499	-14.56759	11.27051
11.97905	-14.58957	11.27051
11.98310	-14.58957	11.27051
11.98716	-14.56759	11.27051
11.99122	-14.56759	11.27051
11.99527	-14.56759	11.27051
11.99933	-14.56759	11.27051
12.00339	-14.56759	11.27051
12.00747	-14.56759	11.27051
12.01241	-14.56759	11.27051
12.01647	-14.56759	11.27051
12.02054	-14.56759	11.27051
12.02460	-14.56759	11.27051
12.02867	-14.56759	11.27051
12.03273	-14.56759	11.27051
12.03678	-14.56759	11.27051
12.04086	-14.56759	11.27051
12.04492	-14.56759	11.27051
12.04898	-14.56759	11.27051
12.05304	-14.54562	11.27051
12.05709	-14.56759	11.27051
12.06115	-14.56759	11.27051
12.06520	-14.54562	11.27051
12.06926	-14.54562	11.27051
12.07332	-14.56759	11.27051
12.07737	-14.54562	11.27051
12.08395	-14.54562	11.27051
12.08801	-14.56759	11.27051
12.09206	-14.54562	11.27051
12.09612	-14.54562	11.27051
12.10017	-14.54562	11.27051
12.10423	-14.54562	11.27051
12.10829	-14.54562	11.27051
12.11234	-14.54562	11.27051
12.11660	-14.54562	11.27051
12.12066	-14.54562	11.27051
12.12471	-14.54562	11.27051
12.12877	-14.54562	11.27051
12.13282	-14.54562	11.27051
12.13688	-14.54562	11.27051
12.14094	-14.52365	11.27051
12.14500	-14.54562	11.27051
12.14906	-14.52365	11.27051
12.15312	-14.52365	11.27051
12.15718	-14.52365	11.27051
12.16262	-14.52365	11.27051
12.16671	-14.52365	11.27051
12.17085	-14.52365	11.27051
12.17596	-14.52365	11.27051
12.18004	-14.52365	11.27051
12.18411	-14.52365	11.27051
12.18819	-14.50168	11.27051
12.19225	-14.50168	11.27051
12.19631	-14.52365	11.27051
12.20037	-14.52365	11.27051
12.20442	-14.52365	11.27051
12.20848	-14.52365	11.27051
12.21254	-14.50168	11.27051
12.21660	-14.50168	11.27051
12.22089	-14.50168	11.27051
12.22495	-14.50168	11.27051
12.22901	-14.50168	11.27051
12.23306	-14.50168	11.27051
12.23712	-14.50168	11.27051
12.24118	-14.50168	11.27051
12.24524	-14.50168	11.27051
12.24931	-14.50168	11.27051
12.25337	-14.50168	11.27051
12.25743	-14.47970	11.27051
12.26148	-14.47970	11.27051
12.26554	-14.47970	11.27051
12.26960	-14.47970	11.27051
12.27365	-14.50168	11.27051
12.27771	-14.50168	11.27051
12.28177	-14.47970	11.27051
12.28582	-14.47970	11.27051
12.28988	-14.47970	11.27051
12.29394	-14.47970	11.27051
12.29799	-14.45773	11.27051
12.30205	-14.45773	11.27051
12.30610	-14.47970	11.27051
12.31016	-14.45773	11.27051
12.31422	-14.47970	11.27051
12.31827	-14.47970	11.27051
12.32256	-14.47970	11.27051
12.32661	-14.45773	11.27051
12.33067	-14.47970	11.27051
12.33473	-14.45773	11.27051
12.33879	-14.45773	11.27051
12.34285	-14.45773	11.27051
12.34690	-14.45773	11.27051
12.35096	-14.45773	11.27051
12.35502	-14.45773	11.27051
12.35908	-14.45773	11.27051
12.36314	-14.43576	11.27051
12.36720	-14.43576	11.27051
12.37126	-14.45773	11.27051
12.37532	-14.43576	11.27051
12.37938	-14.43576	11.27051
12.38344	-14.45773	11.27051
12.38750	-14.45773	11.27051
12.39156	-14.43576	11.27051
12.39562	-14.43576	11.27051
12.39967	-14.43576	11.27051
12.40373	-14.43576	11.27051
12.40779	-14.43576	11.27051
12.41185	-14.43576	11.27051
12.41590	-14.43576	11.27051
12.41992	-14.43576	11.27051
12.42421	-14.43576	11.27051
12.42827	-14.43576	11.27051
12.43233	-14.43576	11.27051
12.43639	-14.41379	11.27051
12.44045	-14.43576	11.27051
12.44451	-14.43576	11.27051
12.44857	-14.43576	11.27051
12.45278	-14.41379	11.27051
12.45684	-14.41379	11.27051
12.46090	-14.41379	11.27051
12.46496	-14.43576	11.27051
12.46903	-14.41379	11.27051
12.47308	-14.41379	11.27051
12.47714	-14.41379	11.27051
12.48120	-14.43576	11.27051
12.48526	-14.41379	11.27051
12.48932	-14.43576	11.27051
12.49338	-14.43576	11.27051
12.49743	-14.41379	11.27051
12.50149	-14.39181	11.27051
12.50555	-14.41379	11.27051
12.50960	-14.41379	11.27051
12.51366	-14.41379	11.27051
12.51772	-14.41379	11.27051
12.52178	-14.41379	11.27051
12.52606	-14.41379	11.27051
12.53012	-14.41379	11.27051
12.53418	-14.41379	11.27051
12.53824	-14.41379	11.27051
12.54230	-14.41379	11.27051
12.54636	-14.41379	11.27051
12.55042	-14.41379	11.27051
12.55450	-14.39181	11.27051
12.55856	-14.41379	11.27051
12.56262	-14.41379	11.27051
12.56668	-14.41379	11.27051
12.57074	-14.39181	11.27051
12.57480	-14.41379	11.27051
12.57885	-14.41379	11.27051
12.58291	-14.41379	11.27051
12.58697	-14.39181	11.27051
12.59102	-14.41379	11.27051
12.59508	-14.39181	11.27051
12.59914	-14.41379	11.27051
12.60319	-14.41379	11.27051
12.60725	-14.39181	11.27051
12.61130	-14.39181	11.27051
12.61538	-14.41379	11.27051
12.61946	-14.39181	11.27051
12.62352	-14.39181	11.27051
12.62781	-14.41379	11.27051
12.63187	-14.41379	11.27051
12.63593	-14.39181	11.27051
12.63999	-14.39181	11.27051
12.64404	-14.39181	11.27051
12.64810	-14.41379	11.27051
12.65216	-14.39181	11.27051
12.65623	-14.39181	11.27051
12.66028	-14.39181	11.27051
12.66434	-14.39181	11.27051
12.66840	-14.41379	11.27051
12.67246	-14.39181	11.27051
12.67651	-14.39181	11.27051
12.68057	-14.39181	11.27051
12.68462	-14.41379	11.27051
12.68868	-14.41379	11.27051
12.69274	-14.39181	11.27051
12.69679	-14.39181	11.27051
12.70085	-14.39181	11.27051
12.70491	-14.39181	11.27051
12.70896	-14.39181	11.27051
12.71302	-14.41379	11.27051
12.71709	-14.39181	11.27051
12.72115	-14.39181	11.27051
12.72520	-14.41379	11.27051
12.72950	-14.39181	11.27051
12.73355	-14.39181	11.27051
12.73761	-14.39181	11.27051
12.74167	-14.39181	11.27051
12.74573	-14.39181	11.27051
12.74978	-14.39181	11.27051
12.75384	-14.41379	11.27051
12.75791	-14.39181	11.27051
12.76197	-14.39181	11.27051
12.76603	-14.39181	11.27051
12.77009	-14.39181	11.27051
12.77414	-14.39181	11.27051
12.77820	-14.41379	11.27051
12.78226	-14.39181	11.27051
12.78631	-14.39181	11.27051
12.79037	-14.39181	11.27051
12.79443	-14.39181	11.27051
12.79848	-14.39181	11.27051
12.80254	-14.39181	11.27051
12.80660	-14.39181	11.27051
12.81066	-14.39181	11.27051
12.81471	-14.39181	11.27051
12.81877	-14.39181	11.27051
12.82282	-14.39181	11.27051
12.82688	-14.39181	11.27051
12.83119	-14.39181	11.27051
12.83525	-14.39181	11.27051
12.83938	-14.39181	11.27051
12.84347	-14.39181	11.27051
12.84754	-14.39181	11.27051
12.85160	-14.36984	11.27051
12.85567	-14.36984	11.27051
12.85973	-14.39181	11.27051
12.86379	-14.39181	11.27051
12.86785	-14.36984	11.27051
12.87190	-14.36984	11.27051
12.87592	-14.36984	11.27051
12.87998	-14.36984	11.27051
12.88404	-14.36984	11.27051
12.88809	-14.36984	11.27051
12.89215	-14.36984	11.27051
12.89621	-14.36984	11.27051
12.90026	-14.36984	11.27051
12.90432	-14.36984	11.27051
12.90837	-14.34787	11.27051
12.91243	-14.36984	11.27051
12.91649	-14.36984	11.27051
12.92054	-14.36984	11.27051
12.92460	-14.34787	11.27051
12.92865	-14.36984	11.27051
12.93309	-14.34787	11.27051
12.93720	-14.34787	11.27051
12.94128	-14.34787	11.27051
12.94534	-14.34787	11.27051
12.94940	-14.34787	11.27051
12.95347	-14.34787	11.27051
12.95752	-14.34787	11.27051
12.96158	-14.34787	11.27051
12.96565	-14.34787	11.27051
12.96970	-14.34787	11.27051
12.97376	-14.32589	11.27051
12.97782	-14.32589	11.27051
12.98187	-14.32589	11.27051
12.98593	-14.32589	11.27051
12.98998	-14.32589	11.27051
12.99404	-14.32589	11.27051
12.99810	-14.32589	11.27051
13.00216	-14.32589	11.27051
13.00621	-14.32589	11.27051
13.01027	-14.32589	11.27051
13.01432	-14.32589	11.27051
13.01838	-14.30392	11.27051
13.02244	-14.30392	11.27051
13.02649	-14.30392	11.27051
13.03055	-14.30392	11.27051
13.03483	-14.30392	11.27051
13.03888	-14.30392	11.27051
13.04294	-14.28195	11.27051
13.04700	-14.30392	11.27051
13.05106	-14.28195	11.27051
13.05512	-14.28195	11.27051
13.05917	-14.28195	11.27051
13.06324	-14.28195	11.27051
13.06730	-14.28195	11.27051
13.07136	-14.28195	11.27051
13.07542	-14.28195	11.27051
13.07948	-14.25998	11.27051
13.08353	-14.28195	11.27051
13.08759	-14.28195	11.27051
13.09165	-14.25998	11.27051
13.09571	-14.25998	11.27051
13.09976	-14.25998	11.27051
13.10382	-14.25998	11.27051
13.10788	-14.25998	11.27051
13.11192	-14.25998	11.27051
13.11598	-14.25998	11.27051
13.12004	-14.25998	11.27051
13.12409	-14.25998	11.27051
13.12815	-14.23800	11.27051
13.13221	-14.23800	11.27051
13.13650	-14.23800	11.27051
13.14056	-14.23800	11.27051
13.14462	-14.23800	11.27051
13.14867	-14.23800	11.27051
13.15274	-14.23800	11.27051
13.15680	-14.23800	11.27051
13.16086	-14.23800	11.27051
13.16493	-14.21603	11.27051
13.16899	-14.21603	11.27051
13.17305	-14.21603	11.27051
13.17711	-14.19406	11.27051
13.18117	-14.19406	11.27051
13.18522	-14.21603	11.27051
13.18928	-14.21603	11.27051
13.19334	-14.19406	11.27051
13.19739	-14.21603	11.27051
13.20145	-14.21603	11.27051
13.20551	-14.19406	11.27051
13.20957	-14.19406	11.27051
13.21363	-14.21603	11.27051
13.21768	-14.19406	11.27051
13.22174	-14.19406	11.27051
13.22580	-14.17209	11.27051
13.22985	-14.17209	11.27051
13.23391	-14.19406	11.27051
13.23821	-14.19406	11.27051
13.24227	-14.17209	11.27051
13.24633	-14.17209	11.27051
13.25039	-14.17209	11.27051
13.25445	-14.17209	11.27051
13.25851	-14.17209	11.27051
13.26257	-14.17209	11.27051
13.26664	-14.17209	11.27051
13.27070	-14.17209	11.27051
13.27476	-14.15011	11.27051
13.27881	-14.15011	11.27051
13.28287	-14.17209	11.27051
13.28693	-14.15011	11.27051
13.29098	-14.15011	11.27051
13.29504	-14.15011	11.27051
13.29910	-14.15011	11.27051
13.30323	-14.15011	11.27051
13.30736	-14.15011	11.27051
13.31142	-14.15011	11.27051
13.31548	-14.15011	11.27051
13.31954	-14.15011	11.27051
13.32361	-14.15011	11.27051
13.32767	-14.12814	11.27051
13.33172	-14.15011	11.27051
13.33578	-14.15011	11.27051
13.34008	-14.12814	11.27051
13.34414	-14.12814	11.27051
13.34820	-14.12814	11.27051
13.35226	-14.12814	11.27051
13.35632	-14.12814	11.27051
13.36037	-14.12814	11.27051
13.36443	-14.12814	11.27051
13.36850	-14.12814	11.27051
13.37256	-14.12814	11.27051
13.37661	-14.12814	11.27051
13.38067	-14.12814	11.27051
13.38473	-14.12814	11.27051
13.38878	-14.12814	11.27051
13.39284	-14.12814	11.27051
13.39689	-14.12814	11.27051
13.40095	-14.12814	11.27051
13.40501	-14.12814	11.27051
13.40906	-14.12814	11.27051
13.41312	-14.10617	11.27051
13.41718	-14.10617	11.27051
13.42123	-14.12814	11.27051
13.42529	-14.12814	11.27051
13.42935	-14.12814	11.27051
13.43340	-14.12814	11.27051
13.43746	-14.12814	11.27051
13.44185	-14.12814	11.27051
13.44591	-14.12814	11.27051
13.44997	-14.10617	11.27051
13.45403	-14.12814	11.27051
13.45809	-14.12814	11.27051
13.46215	-14.12814	11.27051
13.46621	-14.10617	11.27051
13.47028	-14.12814	11.27051
13.47434	-14.12814	11.27051
13.47840	-14.12814	11.27051
13.48246	-14.12814	11.27051
13.48652	-14.12814	11.27051
13.49057	-14.12814	11.27051
13.49463	-14.12814	11.27051
13.49869	-14.12814	11.27051
13.50275	-14.12814	11.27051
13.50681	-14.12814	11.27051
13.51086	-14.12814	11.27051
13.51492	-14.12814	11.27051
13.51898	-14.12814	11.27051
13.52304	-14.12814	11.27051
13.52709	-14.12814	11.27051
13.53115	-14.15011	11.27051
13.53521	-14.12814	11.27051
13.53926	-14.15011	11.27051
13.54356	-14.15011	11.27051
13.54761	-14.15011	11.27051
13.55167	-14.15011	11.27051
13.55574	-14.15011	11.27051
13.55979	-14.15011	11.27051
13.56386	-14.15011	11.27051
13.56793	-14.15011	11.27051
13.57199	-14.15011	11.27051
13.57605	-14.15011	11.27051
13.58011	-14.17209	11.27051
13.58417	-14.15011	11.27051
13.58823	-14.15011	11.27051
13.59228	-14.15011	11.27051
13.59634	-14.17209	11.27051
13.60040	-14.15011	11.27051
13.60445	-14.17209	11.27051
13.60851	-14.17209	11.27051
13.61258	-14.17209	11.27051
13.61663	-14.17209	11.27051
13.62069	-14.17209	11.27051
13.62475	-14.19406	11.27051
13.62881	-14.19406	11.27051
13.63286	-14.19406	11.27051
13.63717	-14.19406	11.27051
13.64123	-14.19406	11.27051
13.64552	-14.19406	11.27051
13.64958	-14.19406	11.27051
13.65364	-14.19406	11.27051
13.65770	-14.19406	11.27051
13.66176	-14.19406	11.27051
13.66582	-14.21603	11.27051
13.66987	-14.19406	11.27051
13.67394	-14.21603	11.27051
13.67800	-14.21603	11.27051
13.68206	-14.21603	11.27051
13.68612	-14.21603	11.27051
13.69017	-14.21603	11.27051
13.69423	-14.23800	11.27051
13.69829	-14.23800	11.27051
13.70234	-14.23800	11.27051
13.70640	-14.23800	11.27051
13.71046	-14.23800	11.27051
13.71452	-14.25998	11.27051
13.71857	-14.25998	11.27051
13.72263	-14.23800	11.27051
13.72669	-14.25998	11.27051
13.73074	-14.25998	11.27051
13.73480	-14.25998	11.27051
13.73886	-14.25998	11.27051
13.74291	-14.25998	11.27051
13.74723	-14.28195	11.27051
13.75129	-14.28195	11.27051
13.75535	-14.28195	11.27051
13.75941	-14.28195	11.27051
13.76346	-14.28195	11.27051
13.76752	-14.30392	11.27051
13.77158	-14.30392	11.27051
13.77564	-14.30392	11.27051
13.77970	-14.30392	11.27051
13.78376	-14.32589	11.27051
13.78782	-14.32589	11.27051
13.79188	-14.30392	11.27051
13.79592	-14.32589	11.27051
13.79998	-14.32589	11.27051
13.80404	-14.32589	11.27051
13.80809	-14.32589	11.27051
13.81215	-14.34787	11.27051
13.81621	-14.32589	11.27051
13.82026	-14.34787	11.27051
13.82432	-14.34787	11.27051
13.82838	-14.34787	11.27051
13.83243	-14.34787	11.27051
13.83649	-14.36984	11.27051
13.84055	-14.36984	11.27051
13.84460	-14.36984	11.27051
13.84889	-14.39181	11.27051
13.85299	-14.39181	11.27051
13.85704	-14.36984	11.27051
13.86110	-14.39181	11.27051
13.86516	-14.39181	11.27051
13.86922	-14.39181	11.27051
13.87328	-14.39181	11.27051
13.87734	-14.39181	11.27051
13.88140	-14.39181	11.27051
13.88547	-14.39181	11.27051
13.88952	-14.41379	11.27051
13.89358	-14.41379	11.27051
13.89764	-14.43576	11.27051
13.90170	-14.41379	11.27051
13.90576	-14.41379	11.27051
13.90981	-14.41379	11.27051
13.91387	-14.41379	11.27051
13.91793	-14.43576	11.27051
13.92199	-14.43576	11.27051
13.92604	-14.43576	11.27051
13.93010	-14.43576	11.27051
13.93416	-14.43576	11.27051
13.93821	-14.45773	11.27051
13.94227	-14.45773	11.27051
13.94633	-14.47970	11.27051
13.95061	-14.45773	11.27051
13.95467	-14.45773	11.27051
13.95873	-14.45773	11.27051
13.96279	-14.47970	11.27051
13.96685	-14.47970	11.27051
13.97091	-14.47970	11.27051
13.97497	-14.47970	11.27051
13.97904	-14.47970	11.27051
13.98310	-14.47970	11.27051
13.98716	-14.50168	11.27051
13.99121	-14.50168	11.27051
13.99527	-14.50168	11.27051
13.99933	-14.52365	11.27051
14.00339	-14.52365	11.27051
14.00744	-14.50168	11.27051
14.01150	-14.50168	11.27051
14.01556	-14.52365	11.27051
14.01961	-14.52365	11.27051
14.02367	-14.52365	11.27051
14.02773	-14.52365	11.27051
14.03179	-14.52365	11.27051
14.03584	-14.52365	11.27051
14.03990	-14.52365	11.27051
14.04392	-14.52365	11.27051
14.04798	-14.52365	11.27051
14.05227	-14.54562	11.27051
14.05633	-14.54562	11.27051
14.06039	-14.54562	11.27051
14.06445	-14.54562	11.27051
14.06851	-14.54562	11.27051
14.07256	-14.56759	11.27051
14.07663	-14.54562	11.27051
14.08071	-14.56759	11.27051
14.08477	-14.56759	11.27051
14.08883	-14.56759	11.27051
14.09289	-14.56759	11.27051
14.09695	-14.56759	11.27051
14.10100	-14.56759	11.27051
14.10506	-14.56759	11.27051
14.10912	-14.56759	11.27051
14.11317	-14.56759	11.27051
14.11723	-14.56759	11.27051
14.12129	-14.58957	11.27051
14.12534	-14.56759	11.27051
14.12940	-14.58957	11.27051
14.13346	-14.58957	11.27051
14.13751	-14.58957	11.27051
14.14157	-14.58957	11.27051
14.14563	-14.58957	11.27051
14.14968	-14.58957	11.27051
14.15399	-14.58957	11.27051
14.15805	-14.58957	11.27051
14.16210	-14.58957	11.27051
14.16616	-14.58957	11.27051
14.17022	-14.58957	11.27051
14.17428	-14.58957	11.27051
14.17834	-14.58957	11.27051
14.18241	-14.61154	11.27051
14.18648	-14.58957	11.27051
14.19053	-14.58957	11.27051
14.19459	-14.61154	11.27051
14.19865	-14.61154	11.27051
14.20271	-14.58957	11.27051
14.20676	-14.61154	11.27051
14.21082	-14.61154	11.27051
14.21488	-14.61154	11.27051
14.21893	-14.61154	11.27051
14.22299	-14.61154	11.27051
14.22705	-14.61154	11.27051
14.23111	-14.61154	11.27051
14.23516	-14.61154	11.27051
14.23922	-14.61154	11.27051
14.24328	-14.61154	11.27051
14.24734	-14.61154	11.27051
14.25139	-14.61154	11.27051
14.25569	-14.63351	11.27051
14.25975	-14.63351	11.27051
14.26381	-14.61154	11.27051
14.26788	-14.61154	11.27051
14.27193	-14.63351	11.27051
14.27599	-14.61154	11.27051
14.28005	-14.61154	11.27051
14.28412	-14.63351	11.27051
14.28818	-14.63351	11.27051
14.29223	-14.63351	11.27051
14.29629	-14.63351	11.27051
14.30035	-14.63351	11.27051
14.30441	-14.63351	11.27051
14.30846	-14.63351	11.27051
14.31252	-14.63351	11.27051
14.31658	-14.63351	11.27051
14.32063	-14.63351	11.27051
14.32469	-14.63351	11.27051
14.32875	-14.63351	11.27051
14.33280	-14.63351	11.27051
14.33686	-14.63351	11.27051
14.34092	-14.63351	11.27051
14.34497	-14.63351	11.27051
14.34903	-14.63351	11.27051
14.35309	-14.63351	11.27051
14.35739	-14.63351	11.27051
14.36145	-14.63351	11.27051
14.36550	-14.63351	11.27051
14.36956	-14.63351	11.27051
14.37362	-14.63351	11.27051
14.37768	-14.63351	11.27051
14.38173	-14.63351	11.27051
14.38581	-14.63351	11.27051
14.38986	-14.63351	11.27051
14.39392	-14.63351	11.27051
14.39798	-14.63351	11.27051
14.40204	-14.63351	11.27051
14.40609	-14.63351	11.27051
14.41015	-14.63351	11.27051
14.41421	-14.63351	11.27051
14.41827	-14.63351	11.27051
14.42233	-14.63351	11.27051
14.42639	-14.63351	11.27051
14.43044	-14.63351	11.27051
14.43450	-14.63351	11.27051
14.43856	-14.63351	11.27051
14.44261	-14.63351	11.27051
14.44667	-14.63351	11.27051
14.45073	-14.63351	11.27051
14.45479	-14.63351	11.27051
14.45907	-14.63351	11.27051
14.46313	-14.63351	11.27051
14.46719	-14.63351	11.27051
14.47125	-14.63351	11.27051
14.47531	-14.63351	11.27051
14.47936	-14.63351	11.27051
14.48342	-14.61154	11.27051
14.48750	-14.63351	11.27051
14.49156	-14.63351	11.27051
14.49561	-14.63351	11.27051
14.49967	-14.61154	11.27051
14.50373	-14.63351	11.27051
14.50779	-14.63351	11.27051
14.51184	-14.63351	11.27051
14.51590	-14.63351	11.27051
14.51993	-14.63351	11.27051
14.52398	-14.61154	11.27051
14.52804	-14.63351	11.27051
14.53210	-14.63351	11.27051
14.53615	-14.63351	11.27051
14.54021	-14.61154	11.27051
14.54427	-14.63351	11.27051
14.54833	-14.61154	11.27051
14.55238	-14.61154	11.27051
14.55645	-14.63351	11.27051
14.56074	-14.63351	11.27051
14.56480	-14.61154	11.27051
14.56886	-14.61154	11.27051
14.57291	-14.61154	11.27051
14.57697	-14.61154	11.27051
14.58103	-14.61154	11.27051
14.58508	-14.61154	11.27051
14.58915	-14.61154	11.27051
14.59321	-14.61154	11.27051
14.59726	-14.61154	11.27051
14.60132	-14.61154	11.27051
14.60538	-14.61154	11.27051
14.60944	-14.61154	11.27051
14.61350	-14.61154	11.27051
14.61756	-14.61154	11.27051
14.62162	-14.61154	11.27051
14.62567	-14.61154	11.27051
14.62973	-14.61154	11.27051
14.63379	-14.58957	11.27051
14.63785	-14.61154	11.27051
14.64191	-14.61154	11.27051
14.64597	-14.61154	11.27051
14.65003	-14.58957	11.27051
14.65409	-14.61154	11.27051
14.65815	-14.61154	11.27051
14.66248	-14.58957	11.27051
14.66654	-14.58957	11.27051
14.67061	-14.61154	11.27051
14.67467	-14.61154	11.27051
14.67872	-14.58957	11.27051
14.68278	-14.61154	11.27051
14.68684	-14.61154	11.27051
14.69091	-14.61154	11.27051
14.69497	-14.61154	11.27051
14.69903	-14.58957	11.27051
14.70309	-14.61154	11.27051
14.70714	-14.61154	11.27051
14.71120	-14.61154	11.27051
14.71526	-14.58957	11.27051
14.71931	-14.58957	11.27051
14.72337	-14.58957	11.27051
14.72743	-14.58957	11.27051
14.73148	-14.58957	11.27051
14.73554	-14.58957	11.27051
14.73960	-14.61154	11.27051
14.74365	-14.58957	11.27051
14.74771	-14.58957	11.27051
14.75177	-14.58957	11.27051
14.75583	-14.61154	11.27051
14.75989	-14.58957	11.27051
14.76478	-14.58957	11.27051
14.76889	-14.58957	11.27051
14.77295	-14.58957	11.27051
14.77701	-14.58957	11.27051
14.78109	-14.58957	11.27051
14.78515	-14.58957	11.27051
14.78921	-14.58957	11.27051
14.79328	-14.58957	11.27051
14.79734	-14.58957	11.27051
14.80140	-14.56759	11.27051
14.80545	-14.58957	11.27051
14.80951	-14.58957	11.27051
14.81357	-14.58957	11.27051
14.81762	-14.58957	11.27051
14.82168	-14.58957	11.27051
14.82574	-14.56759	11.27051
14.82979	-14.58957	11.27051
14.83385	-14.58957	11.27051
14.83791	-14.58957	11.27051
14.84196	-14.58957	11.27051
14.84602	-14.58957	11.27051
14.85008	-14.58957	11.27051
14.85416	-14.58957	11.27051
14.85822	-14.58957	11.27051
14.86228	-14.58957	11.27051
14.86655	-14.58957	11.27051
14.87062	-14.56759	11.27051
14.87467	-14.58957	11.27051
14.87873	-14.58957	11.27051
14.88279	-14.58957	11.27051
14.88684	-14.56759	11.27051
14.89090	-14.58957	11.27051
14.89497	-14.56759	11.27051
14.89903	-14.56759	11.27051
14.90309	-14.56759	11.27051
14.90714	-14.56759	11.27051
14.91120	-14.56759	11.27051
14.91526	-14.58957	11.27051
14.91931	-14.56759	11.27051
14.92337	-14.56759	11.27051
14.92743	-14.56759	11.27051
14.93148	-14.56759	11.27051
14.93554	-14.56759	11.27051
14.93959	-14.56759	11.27051
14.94365	-14.56759	11.27051
14.94771	-14.56759	11.27051
14.95176	-14.56759	11.27051
14.95583	-14.56759	11.27051
14.95988	-14.56759	11.27051
14.96392	-14.56759	11.27051
14.96820	-14.56759	11.27051
14.97226	-14.56759	11.27051
14.97632	-14.54562	11.27051
14.98038	-14.56759	11.27051
14.98444	-14.54562	11.27051
14.98849	-14.56759	11.27051
14.99255	-14.56759	11.27051
14.99662	-14.56759	11.27051
15.00129	-14.54562	-1.69886
15.00535	-14.54562	-1.69886
15.00941	-14.54562	-1.69886
15.01348	-14.54562	-1.69886
15.01754	-14.54562	-1.69886
15.02162	-14.54562	-1.69886
15.02569	-14.54562	-1.69886
15.02976	-14.54562	-1.69886
15.03381	-14.54562	-1.69886
15.03787	-14.54562	-1.69886
15.04193	-14.56759	-1.69886
15.04599	-14.54562	-1.69886
15.05005	-14.54562	-1.69886
15.05411	-14.54562	-1.69886
15.05817	-14.54562	-1.69886
15.06223	-14.52365	-1.69886
15.06629	-14.54562	-1.69886
15.07035	-14.52365	-1.69886
15.07441	-14.52365	-1.69886
15.07847	-14.52365	-1.69886
15.08252	-14.52365	-1.69886
15.08658	-14.50168	-1.69886
15.09064	-14.50168	-1.69886
15.09470	-14.50168	-1.69886
15.09876	-14.50168	-1.69886
15.10303	-14.47970	-1.69886
15.10708	-14.47970	-1.69886
15.11114	-14.45773	-1.69886
15.11520	-14.45773	-1.69886
15.11926	-14.43576	-1.69886
15.12332	-14.43576	-1.69886
15.12737	-14.41379	-1.69886
15.13144	-14.41379	-1.69886
15.13550	-14.39181	-1.69886
15.13956	-14.36984	-1.69886
15.14362	-14.36984	-1.69886
15.14767	-14.34787	-1.69886
15.15173	-14.32589	-1.69886
15.15579	-14.30392	-1.69886
15.15985	-14.28195	-1.69886
15.16391	-14.25998	-1.69886
15.16793	-14.25998	-1.69886
15.17198	-14.23800	-1.69886
15.17604	-14.19406	-1.69886
15.18010	-14.17209	-1.69886
15.18416	-14.15011	-1.69886
15.18821	-14.15011	-1.69886
15.19227	-14.10617	-1.69886
15.19633	-14.08420	-1.69886
15.20038	-14.04025	-1.69886
15.20467	-13.99631	-1.69886
15.20873	-13.99631	-1.69886
15.21279	-13.97433	-1.69886
15.21685	-13.93039	-1.69886
15.22091	-13.88644	-1.69886
15.22497	-13.88644	-1.69886
15.22902	-13.84250	-1.69886
15.23309	-13.79855	-1.69886
15.23716	-13.75461	-1.69886
15.24122	-13.71066	-1.69886
15.24528	-13.66672	-1.69886
15.24934	-13.66672	-1.69886
15.25340	-13.62277	-1.69886
15.25746	-13.55685	-1.69886
15.26152	-13.51291	-1.69886
15.26558	-13.44699	-1.69886
15.26964	-13.44699	-1.69886
15.27370	-13.38107	-1.69886
15.27776	-13.33713	-1.69886
15.28182	-13.27121	-1.69886
15.28588	-13.22726	-1.69886
15.28994	-13.16134	-1.69886
15.29399	-13.16134	-1.69886
15.29806	-13.09543	-1.69886
15.30211	-13.02951	-1.69886
15.30639	-12.96359	-1.69886
15.31045	-12.87570	-1.69886
15.31451	-12.87570	-1.69886
15.31858	-12.80978	-1.69886
15.32263	-12.76584	-1.69886
15.32669	-12.67795	-1.69886
15.33076	-12.61203	-1.69886
15.33484	-12.52414	-1.69886
15.33890	-12.52414	-1.69886
15.34296	-12.45822	-1.69886
15.34703	-12.37033	-1.69886
15.35109	-12.30441	-1.69886
15.35515	-12.19455	-1.69886
15.35921	-12.12863	-1.69886
15.36328	-12.12863	-1.69886
15.36733	-12.04074	-1.69886
15.37139	-11.95285	-1.69886
15.37545	-11.86496	-1.69886
15.37952	-11.86496	-1.69886
15.38358	-11.77707	-1.69886
15.38763	-11.68918	-1.69886
15.39169	-11.60129	-1.69886
15.39576	-11.49142	-1.69886
15.39981	-11.49142	-1.69886
15.40387	-11.40353	-1.69886
15.40814	-11.31564	-1.69886
15.41220	-11.22775	-1.69886
15.41625	-11.11789	-1.69886
15.42032	-11.00802	-1.69886
15.42437	-11.00802	-1.69886
15.42844	-10.89816	-1.69886
15.43258	-10.81027	-1.69886
15.43675	-10.70041	-1.69886
15.44084	-10.61252	-1.69886
15.44490	-10.61252	-1.69886
15.44896	-10.48068	-1.69886
15.45302	-10.34884	-1.69886
15.45708	-10.26095	-1.69886
15.46114	-10.12912	-1.69886
15.46519	-10.12912	-1.69886
15.46925	-10.01925	-1.69886
15.47331	-9.90939	-1.69886
15.47736	-9.77756	-1.69886
15.48142	-9.66769	-1.69886
15.48548	-9.66769	-1.69886
15.48953	-9.53586	-1.69886
15.49359	-9.44797	-1.69886
15.49764	-9.31613	-1.69886
15.50170	-9.18429	-1.69886
15.50576	-9.07443	-1.69886
15.51003	-9.07443	-1.69886
15.51409	-8.94259	-1.69886
15.51815	-8.81076	-1.69886
15.52220	-8.70089	-1.69886
15.52626	-8.54709	-1.69886
15.53032	-8.45920	-1.69886
15.53437	-8.45920	-1.69886
15.53844	-8.30539	-1.69886
15.54250	-8.17355	-1.69886
15.54655	-8.04172	-1.69886
15.55061	-8.04172	-1.69886
15.55468	-7.90988	-1.69886
15.55874	-7.77804	-1.69886
15.56279	-7.64621	-1.69886
15.56685	-7.49240	-1.69886
15.57091	-7.49240	-1.69886
15.57496	-7.36056	-1.69886
15.57904	-7.25070	-1.69886
15.58310	-7.09689	-1.69886
15.58717	-6.96506	-1.69886
15.59123	-6.81125	-1.69886
15.59528	-6.81125	-1.69886
15.59934	-6.67941	-1.69886
15.60340	-6.52560	-1.69886
15.60746	-6.39377	-1.69886
15.61175	-6.23996	-1.69886
15.61581	-6.13009	-1.69886
15.61986	-6.13009	-1.69886
15.62392	-5.97629	-1.69886
15.62798	-5.82248	-1.69886
15.63204	-5.69064	-1.69886
15.63610	-5.53683	-1.69886
15.64016	-5.53683	-1.69886
15.64422	-5.38302	-1.69886
15.64827	-5.22922	-1.69886
15.65233	-5.07541	-1.69886
15.65639	-4.92160	-1.69886
15.66045	-4.81173	-1.69886
15.66450	-4.81173	-1.69886
15.66856	-4.65793	-1.69886
15.67262	-4.50412	-1.69886
15.67668	-4.32834	-1.69886
15.68073	-4.17453	-1.69886
15.68479	-4.17453	-1.69886
15.68885	-4.02072	-1.69886
15.69291	-3.86691	-1.69886
15.69696	-3.71310	-1.69886
15.70102	-3.71310	-1.69886
15.70508	-3.55929	-1.69886
15.70913	-3.38351	-1.69886
15.71343	-3.22970	-1.69886
15.71749	-3.07589	-1.69886
15.72155	-3.07589	-1.69886
15.72561	-2.92209	-1.69886
15.72966	-2.74631	-1.69886
15.73372	-2.61447	-1.69886
15.73778	-2.43869	-1.69886
15.74185	-2.43869	-1.69886
15.74591	-2.26291	-1.69886
15.74996	-2.15304	-1.69886
15.75402	-1.97726	-1.69886
15.75808	-1.82345	-1.69886
15.76213	-1.64767	-1.69886
15.76619	-1.64767	-1.69886
15.77025	-1.49386	-1.69886
15.77431	-1.31808	-1.69886
15.77836	-1.16427	-1.69886
15.78243	-0.98849	-1.69886
15.78649	-0.85666	-1.69886
15.79054	-0.85666	-1.69886
15.79460	-0.70285	-1.69886
15.79866	-0.52707	-1.69886
15.80271	-0.37326	-1.69886
15.80677	-0.21945	-1.69886
15.81083	-0.21945	-1.69886
15.81512	-0.04367	-1.69886
15.81918	0.13211	-1.69886
15.82324	0.28592	-1.69886
15.82730	0.43973	-1.69886
15.83135	0.57157	-1.69886
15.83541	0.57157	-1.69886
15.83947	0.74735	-1.69886
15.84354	0.92313	-1.69886
15.84759	1.07694	-1.69886
15.85165	1.07694	-1.69886
15.85571	1.25272	-1.69886
15.85977	1.40653	-1.69886
15.86382	1.58231	-1.69886
15.86788	1.73612	-1.69886
15.87192	1.86795	-1.69886
15.87598	1.86795	-1.69886
15.88004	2.04373	-1.69886
15.88410	2.21952	-1.69886
15.88816	2.37332	-1.69886
15.89221	2.52713	-1.69886
15.89627	2.52713	-1.69886
15.90033	2.70291	-1.69886
15.90438	2.85672	-1.69886
15.90844	3.03250	-1.69886
15.91250	3.18631	-1.69886
15.91679	3.31815	-1.69886
15.92085	3.31815	-1.69886
15.92490	3.47196	-1.69886
15.92896	3.64774	-1.69886
15.93302	3.80155	-1.69886
15.93707	3.95536	-1.69886
15.94113	3.95536	-1.69886
15.94521	4.13114	-1.69886
15.94927	4.26297	-1.69886
15.95333	4.43875	-1.69886
15.95738	4.59256	-1.69886
15.96144	4.59256	-1.69886
15.96550	4.74637	-1.69886
15.96955	4.90018	-1.69886
15.97361	5.05399	-1.69886
15.97767	5.05399	-1.69886
15.98173	5.22977	-1.69886
15.98579	5.36161	-1.69886
15.98985	5.53739	-1.69886
15.99391	5.69119	-1.69886
15.99796	5.69119	-1.69886
16.00202	5.84500	-1.69886
16.00608	5.95487	-1.69886
16.01013	6.10868	-1.69886
16.01419	6.26248	-1.69886
16.01849	6.41629	-1.69886
16.02254	6.41629	-1.69886
16.02660	6.57010	-1.69886
16.03066	6.70194	-1.69886
16.03471	6.85575	-1.69886
16.03877	7.00955	-1.69886
16.04283	7.11942	-1.69886
16.04690	7.11942	-1.69886
16.05096	7.25125	-1.69886
16.05501	7.42703	-1.69886
16.05907	7.55887	-1.69886
16.06313	7.71268	-1.69886
16.06718	7.71268	-1.69886
16.07124	7.84452	-1.69886
16.07530	7.99832	-1.69886
16.07935	8.15213	-1.69886
16.08341	8.28397	-1.69886
16.08747	8.39383	-1.69886
16.09153	8.39383	-1.69886
16.09559	8.52567	-1.69886
16.09964	8.65750	-1.69886
16.10370	8.81131	-1.69886
16.10776	8.81131	-1.69886
16.11181	8.94315	-1.69886
16.11587	9.07498	-1.69886
16.12016	9.20682	-1.69886
16.12422	9.33866	-1.69886
16.12828	9.44852	-1.69886
16.13233	9.44852	-1.69886
16.13639	9.58036	-1.69886
16.14045	9.71219	-1.69886
16.14451	9.84403	-1.69886
16.14858	9.97586	-1.69886
16.15264	9.97586	-1.69886
16.15670	10.08573	-1.69886
16.16075	10.21756	-1.69886
16.16481	10.34940	-1.69886
16.16887	10.45926	-1.69886
16.17292	10.56912	-1.69886
16.17698	10.56912	-1.69886
16.18104	10.67899	-1.69886
16.18510	10.78885	-1.69886
16.18916	10.92069	-1.69886
16.19322	11.05252	-1.69886
16.19728	11.05252	-1.69886
16.20133	11.14041	-1.69886
16.20539	11.25028	-1.69886
16.20945	11.38211	-1.69886
16.21351	11.49198	-1.69886
16.21756	11.49198	-1.69886
16.22185	11.60184	-1.69886
16.22591	11.71170	-1.69886
16.22997	11.82157	-1.69886
16.23403	11.93143	-1.69886
16.23809	11.93143	-1.69886
16.24214	12.04129	-1.69886
16.24620	12.15116	-1.69886
16.25027	12.23905	-1.69886
16.25433	12.34891	-1.69886
16.25839	12.43680	-1.69886
16.26245	12.43680	-1.69886
16.26651	12.54666	-1.69886
16.27056	12.63455	-1.69886
16.27462	12.72244	-1.69886
16.27868	12.72244	-1.69886
16.28274	12.83231	-1.69886
16.28679	12.92020	-1.69886
16.29085	13.00809	-1.69886
16.29491	13.11795	-1.69886
16.29897	13.18387	-1.69886
16.30303	13.18387	-1.69886
16.30709	13.27176	-1.69886
16.31115	13.35965	-1.69886
16.31521	13.44754	-1.69886
16.31927	13.53543	-1.69886
16.32358	13.53543	-1.69886
16.32764	13.62332	-1.69886
16.33170	13.68924	-1.69886
16.33576	13.77713	-1.69886
16.33982	13.86502	-1.69886
16.34387	13.90897	-1.69886
16.34792	13.90897	-1.69886
16.35199	13.99686	-1.69886
16.35605	14.06278	-1.69886
16.36011	14.15067	-1.69886
16.36417	14.21659	-1.69886
16.36822	14.21659	-1.69886
16.37228	14.28250	-1.69886
16.37634	14.34842	-1.69886
16.38040	14.41434	-1.69886
16.38445	14.48026	-1.69886
16.38851	14.54618	-1.69886
16.39257	14.54618	-1.69886
16.39662	14.59012	-1.69886
16.40068	14.65604	-1.69886
16.40474	14.72196	-1.69886
16.40880	14.72196	-1.69886
16.41285	14.76590	-1.69886
16.41691	14.83182	-1.69886
16.42097	14.87577	-1.69886
16.42526	14.94168	-1.69886
16.42932	14.98563	-1.69886
16.43337	14.98563	-1.69886
16.43743	15.02957	-1.69886
16.44149	15.07352	-1.69886
16.44555	15.13944	-1.69886
16.44961	15.16141	-1.69886
16.45368	15.16141	-1.69886
16.45773	15.20536	-1.69886
16.46179	15.27127	-1.69886
16.46585	15.29325	-1.69886
16.46991	15.33719	-1.69886
16.47396	15.33719	-1.69886
16.47802	15.38114	-1.69886
16.48208	15.40311	-1.69886
16.48614	15.42508	-1.69886
16.49019	15.46903	-1.69886
16.49425	15.46903	-1.69886
16.49831	15.51297	-1.69886
16.50237	15.53494	-1.69886
16.50642	15.55692	-1.69886
16.51048	15.60086	-1.69886
16.51454	15.60086	-1.69886
16.51859	15.60086	-1.69886
16.52265	15.62284	-1.69886
16.52694	15.64481	-1.69886
16.53100	15.66678	-1.69886
16.53506	15.68875	-1.69886
16.53912	15.68875	-1.69886
16.54318	15.71073	-1.69886
16.54723	15.73270	-1.69886
16.55129	15.73270	-1.69886
16.55538	15.73270	-1.69886
16.55944	15.75467	-1.69886
16.56351	15.75467	-1.69886
16.56757	15.75467	-1.69886
16.57163	15.77664	-1.69886
16.57568	15.77664	-1.69886
16.57974	15.77664	-1.69886
16.58380	15.77664	-1.69886
16.58786	15.79862	-1.69886
16.59193	15.77664	-1.69886
16.59599	15.77664	-1.69886
16.60004	15.79862	-1.69886
16.60410	15.79862	-1.69886
16.60816	15.77664	-1.69886
16.61222	15.77664	-1.69886
16.61627	15.77664	-1.69886
16.62033	15.75467	-1.69886
16.62439	15.75467	-1.69886
16.62867	15.75467	-1.69886
16.63273	15.75467	-1.69886
16.63678	15.73270	-1.69886
16.64084	15.73270	-1.69886
16.64490	15.71073	-1.69886
16.64896	15.71073	-1.69886
16.65302	15.68875	-1.69886
16.65709	15.66678	-1.69886
16.66115	15.64481	-1.69886
16.66520	15.62284	-1.69886
16.66926	15.62284	-1.69886
16.67332	15.60086	-1.69886
16.67737	15.57889	-1.69886
16.68143	15.55692	-1.69886
16.68549	15.53494	-1.69886
16.68954	15.51297	-1.69886
16.69361	15.51297	-1.69886
16.69766	15.46903	-1.69886
16.70172	15.42508	-1.69886
16.70578	15.40311	-1.69886
16.70984	15.40311	-1.69886
16.71390	15.35916	-1.69886
16.71796	15.33719	-1.69886
16.72201	15.29325	-1.69886
16.72607	15.24930	-1.69886
16.73035	15.24930	-1.69886
16.73441	15.22733	-1.69886
16.73847	15.18338	-1.69886
16.74252	15.13944	-1.69886
16.74658	15.07352	-1.69886
16.75064	15.07352	-1.69886
16.75470	15.05155	-1.69886
16.75877	14.98563	-1.69886
16.76283	14.94168	-1.69886
16.76689	14.89774	-1.69886
16.77095	14.85379	-1.69886
16.77500	14.85379	-1.69886
16.77906	14.80985	-1.69886
16.78312	14.74393	-1.69886
16.78718	14.69998	-1.69886
16.79123	14.63407	-1.69886
16.79529	14.63407	-1.69886
16.79935	14.56815	-1.69886
16.80340	14.52420	-1.69886
16.80746	14.45828	-1.69886
16.81152	14.39237	-1.69886
16.81558	14.34842	-1.69886
16.81963	14.34842	-1.69886
16.82369	14.28250	-1.69886
16.82775	14.21659	-1.69886
16.83204	14.15067	-1.69886
16.83610	14.08475	-1.69886
16.84015	14.08475	-1.69886
16.84421	14.01883	-1.69886
16.84827	13.95291	-1.69886
16.85233	13.86502	-1.69886
16.85639	13.82108	-1.69886
16.86045	13.73319	-1.69886
16.86451	13.73319	-1.69886
16.86857	13.66727	-1.69886
16.87262	13.60135	-1.69886
16.87668	13.51346	-1.69886
16.88074	13.51346	-1.69886
16.88480	13.44754	-1.69886
16.88885	13.35965	-1.69886
16.89291	13.27176	-1.69886
16.89697	13.22782	-1.69886
16.90103	13.13993	-1.69886
16.90508	13.13993	-1.69886
16.90914	13.05203	-1.69886
16.91320	12.96414	-1.69886
16.91725	12.87625	-1.69886
16.92131	12.78836	-1.69886
16.92537	12.78836	-1.69886
16.92942	12.72244	-1.69886
16.93371	12.61258	-1.69886
16.93777	12.52469	-1.69886
16.94187	12.45877	-1.69886
16.94594	12.37088	-1.69886
16.95001	12.37088	-1.69886
16.95407	12.28299	-1.69886
16.95813	12.17313	-1.69886
16.96220	12.08524	-1.69886
16.96626	11.97537	-1.69886
16.97032	11.97537	-1.69886
16.97437	11.90946	-1.69886
16.97843	11.79959	-1.69886
16.98249	11.71170	-1.69886
16.98654	11.60184	-1.69886
16.99060	11.60184	-1.69886
16.99466	11.49198	-1.69886
16.99872	11.40409	-1.69886
17.00277	11.29422	-1.69886
17.00683	11.29422	-1.69886
17.01088	11.20633	-1.69886
17.01494	11.09647	-1.69886
17.01900	10.98661	-1.69886
17.02305	10.89871	-1.69886
17.02711	10.81082	-1.69886
17.03117	10.81082	-1.69886
17.03543	10.70096	-1.69886
17.03949	10.59110	-1.69886
17.04355	10.50321	-1.69886
17.04761	10.39334	-1.69886
17.05166	10.39334	-1.69886
17.05572	10.28348	-1.69886
17.05977	10.15164	-1.69886
17.06384	10.04178	-1.69886
17.06790	9.97586	-1.69886
17.07193	9.84403	-1.69886
17.07598	9.84403	-1.69886
17.08004	9.75614	-1.69886
17.08410	9.62430	-1.69886
17.08815	9.51444	-1.69886
17.09221	9.40457	-1.69886
17.09626	9.40457	-1.69886
17.10032	9.27274	-1.69886
17.10438	9.16287	-1.69886
17.10844	9.05301	-1.69886
17.11249	8.96512	-1.69886
17.11655	8.83328	-1.69886
17.12061	8.83328	-1.69886
17.12466	8.72342	-1.69886
17.12872	8.61356	-1.69886
17.13278	8.50369	-1.69886
17.13706	8.37186	-1.69886
17.14112	8.37186	-1.69886
17.14518	8.24002	-1.69886
17.14924	8.13016	-1.69886
17.15329	8.04227	-1.69886
17.15735	7.93241	-1.69886
17.16141	7.93241	-1.69886
17.16547	7.80057	-1.69886
17.16953	7.69071	-1.69886
17.17359	7.55887	-1.69886
17.17765	7.44901	-1.69886
17.18171	7.44901	-1.69886
17.18576	7.31717	-1.69886
17.18982	7.20731	-1.69886
17.19389	7.07547	-1.69886
17.19796	6.98758	-1.69886
17.20202	6.85575	-1.69886
17.20608	6.85575	-1.69886
17.21014	6.72391	-1.69886
17.21419	6.61405	-1.69886
17.21825	6.48221	-1.69886
17.22231	6.35037	-1.69886
17.22636	6.35037	-1.69886
17.23042	6.24051	-1.69886
17.23448	6.10868	-1.69886
17.23875	5.97684	-1.69886
17.24281	5.86698	-1.69886
17.24686	5.86698	-1.69886
17.25092	5.75711	-1.69886
17.25498	5.60330	-1.69886
17.25903	5.49344	-1.69886
17.26309	5.38358	-1.69886
17.26716	5.38358	-1.69886
17.27122	5.25174	-1.69886
17.27528	5.11991	-1.69886
17.27933	5.01004	-1.69886
17.28339	4.90018	-1.69886
17.28745	4.90018	-1.69886
17.29150	4.79032	-1.69886
17.29556	4.65848	-1.69886
17.29964	4.52664	-1.69886
17.30370	4.41678	-1.69886
17.30775	4.41678	-1.69886
17.31181	4.28494	-1.69886
17.31587	4.15311	-1.69886
17.31993	4.04325	-1.69886
17.32398	3.93338	-1.69886
17.32804	3.82352	-1.69886
17.33210	3.82352	-1.69886
17.33615	3.69168	-1.69886
17.34043	3.58182	-1.69886
17.34448	3.44998	-1.69886
17.34854	3.31815	-1.69886
17.35260	3.31815	-1.69886
17.35666	3.20828	-1.69886
17.36071	3.07645	-1.69886
17.36477	2.96659	-1.69886
17.36883	2.87869	-1.69886
17.37289	2.74686	-1.69886
17.37695	2.74686	-1.69886
17.38100	2.61502	-1.69886
17.38506	2.50516	-1.69886
17.38912	2.39530	-1.69886
17.39318	2.26346	-1.69886
17.39723	2.26346	-1.69886
17.40129	2.13162	-1.69886
17.40535	2.02176	-1.69886
17.40940	1.93387	-1.69886
17.41346	1.82401	-1.69886
17.41752	1.82401	-1.69886
17.42158	1.69217	-1.69886
17.42563	1.58231	-1.69886
17.42969	1.47244	-1.69886
17.43375	1.34061	-1.69886
17.43781	1.34061	-1.69886
17.44209	1.25272	-1.69886
17.44614	1.12088	-1.69886
17.45020	1.01102	-1.69886
17.45426	0.92313	-1.69886
17.45832	0.81327	-1.69886
17.46238	0.81327	-1.69886
17.46643	0.68143	-1.69886
17.47051	0.57157	-1.69886
17.47456	0.48368	-1.69886
17.47862	0.37381	-1.69886
17.48268	0.37381	-1.69886
17.48673	0.26395	-1.69886
17.49079	0.15409	-1.69886
17.49485	0.04422	-1.69886
17.49890	-0.06564	-1.69886
17.50296	-0.06564	-1.69886
17.50702	-0.17550	-1.69886
17.51108	-0.28537	-1.69886
17.51513	-0.37326	-1.69886
17.51919	-0.48312	-1.69886
17.52325	-0.48312	-1.69886
17.52730	-0.59298	-1.69886
17.53136	-0.70285	-1.69886
17.53542	-0.79074	-1.69886
17.53947	-0.87863	-1.69886
17.54376	-0.98849	-1.69886
17.54781	-0.98849	-1.69886
17.55187	-1.07638	-1.69886
17.55594	-1.16427	-1.69886
17.56000	-1.27414	-1.69886
17.56406	-1.36203	-1.69886
17.56811	-1.36203	-1.69886
17.57218	-1.47189	-1.69886
17.57624	-1.55978	-1.69886
17.58030	-1.62570	-1.69886
17.58436	-1.73556	-1.69886
17.58841	-1.73556	-1.69886
17.59247	-1.82345	-1.69886
17.59653	-1.93332	-1.69886
17.60058	-1.99923	-1.69886
17.60464	-2.10910	-1.69886
17.60870	-2.10910	-1.69886
17.61276	-2.19699	-1.69886
17.61681	-2.28488	-1.69886
17.62087	-2.37277	-1.69886
17.62493	-2.43869	-1.69886
17.62899	-2.52658	-1.69886
17.63304	-2.52658	-1.69886
17.63710	-2.59250	-1.69886
17.64116	-2.68039	-1.69886
17.64545	-2.76828	-1.69886
17.64951	-2.85617	-1.69886
17.65357	-2.85617	-1.69886
17.65763	-2.92209	-1.69886
17.66169	-3.00998	-1.69886
17.66574	-3.07589	-1.69886
17.66980	-3.14181	-1.69886
17.67387	-3.22970	-1.69886
17.67793	-3.22970	-1.69886
17.68199	-3.29562	-1.69886
17.68604	-3.36154	-1.69886
17.69010	-3.44943	-1.69886
17.69416	-3.51535	-1.69886
17.69821	-3.51535	-1.69886
17.70227	-3.58127	-1.69886
17.70634	-3.64718	-1.69886
17.71040	-3.71310	-1.69886
17.71445	-3.77902	-1.69886
17.71851	-3.77902	-1.69886
17.72257	-3.84494	-1.69886
17.72662	-3.91086	-1.69886
17.73068	-3.97677	-1.69886
17.73474	-4.04269	-1.69886
17.73879	-4.04269	-1.69886
17.74285	-4.10861	-1.69886
17.74714	-4.17453	-1.69886
17.75120	-4.21847	-1.69886
17.75526	-4.28439	-1.69886
17.75932	-4.28439	-1.69886
17.76337	-4.35031	-1.69886
17.76743	-4.41623	-1.69886
17.77149	-4.46017	-1.69886
17.77556	-4.52609	-1.69886
17.77962	-4.52609	-1.69886
17.78368	-4.57004	-1.69886
17.78773	-4.61398	-1.69886
17.79179	-4.67990	-1.69886
17.79585	-4.72384	-1.69886
17.79990	-4.76779	-1.69886
17.80393	-4.76779	-1.69886
17.80799	-4.81173	-1.69886
17.81205	-4.85568	-1.69886
17.81610	-4.89963	-1.69886
17.82017	-4.94357	-1.69886
17.82423	-4.94357	-1.69886
17.83211	-5.03146	-1.69886
17.83625	-5.05343	-1.69886
17.84033	-5.09738	-1.69886
17.84440	-5.14132	-1.69886
17.84847	-5.14132	-1.69886
17.85284	-5.18527	-1.69886
17.85690	-5.20724	-1.69886
17.86098	-5.25119	-1.69886
17.86505	-5.27316	-1.69886
17.86911	-5.27316	-1.69886
17.87316	-5.31711	-1.69886
17.87722	-5.36105	-1.69886
17.88129	-5.38302	-1.69886
17.88535	-5.40500	-1.69886
17.88940	-5.40500	-1.69886
17.89346	-5.42697	-1.69886
17.89752	-5.44894	-1.69886
17.90158	-5.47091	-1.69886
17.90564	-5.49289	-1.69886
17.90970	-5.49289	-1.69886
17.91376	-5.53683	-1.69886
17.91781	-5.55881	-1.69886
17.92187	-5.55881	-1.69886
17.92592	-5.58078	-1.69886
17.92998	-5.60275	-1.69886
17.93404	-5.60275	-1.69886
17.93809	-5.62472	-1.69886
17.94215	-5.62472	-1.69886
17.94621	-5.64670	-1.69886
17.95026	-5.66867	-1.69886
17.95451	-5.66867	-1.69886
17.95857	-5.66867	-1.69886
17.96263	-5.69064	-1.69886
17.96669	-5.69064	-1.69886
17.97074	-5.69064	-1.69886
17.97480	-5.71261	-1.69886
17.97886	-5.71261	-1.69886
17.98292	-5.71261	-1.69886
17.98698	-5.71261	-1.69886
17.99104	-5.73459	-1.69886
17.99510	-5.71261	-1.69886
17.99916	-5.71261	-1.69886
18.00321	-5.73459	-1.69886
18.00727	-5.73459	-1.69886
18.01133	-5.71261	-1.69886
18.01538	-5.71261	-1.69886
18.01945	-5.73459	-1.69886
18.02350	-5.73459	-1.69886
18.02756	-5.71261	-1.69886
18.03162	-5.71261	-1.69886
18.03568	-5.71261	-1.69886
18.03974	-5.71261	-1.69886
18.04380	-5.71261	-1.69886
18.04786	-5.69064	-1.69886
18.05193	-5.69064	-1.69886
18.05621	-5.69064	-1.69886
18.06027	-5.69064	-1.69886
18.06433	-5.66867	-1.69886
18.06839	-5.66867	-1.69886
18.07244	-5.64670	-1.69886
18.07650	-5.62472	-1.69886
18.08057	-5.62472	-1.69886
18.08463	-5.60275	-1.69886
18.08869	-5.58078	-1.69886
18.09275	-5.58078	-1.69886
18.09681	-5.55881	-1.69886
18.10087	-5.53683	-1.69886
18.10492	-5.53683	-1.69886
18.10898	-5.51486	-1.69886
18.11304	-5.49289	-1.69886
18.11710	-5.47091	-1.69886
18.12115	-5.44894	-1.69886
18.12521	-5.44894	-1.69886
18.12927	-5.42697	-1.69886
18.13333	-5.40500	-1.69886
18.13738	-5.38302	-1.69886
18.14144	-5.33908	-1.69886
18.14550	-5.33908	-1.69886
18.14956	-5.31711	-1.69886
18.15361	-5.29513	-1.69886
18.15788	-5.25119	-1.69886
18.16194	-5.20724	-1.69886
18.16600	-5.20724	-1.69886
18.17006	-5.18527	-1.69886
18.17412	-5.16330	-1.69886
18.17818	-5.11935	-1.69886
18.18223	-5.09738	-1.69886
18.18630	-5.05343	-1.69886
18.19036	-5.05343	-1.69886
18.19442	-5.03146	-1.69886
18.19848	-4.98752	-1.69886
18.20253	-4.94357	-1.69886
18.20659	-4.89963	-1.69886
18.21065	-4.89963	-1.69886
18.21471	-4.85568	-1.69886
18.21876	-4.83371	-1.69886
18.22282	-4.78976	-1.69886
18.22688	-4.74582	-1.69886
18.23095	-4.70187	-1.69886
18.23501	-4.70187	-1.69886
18.23906	-4.65793	-1.69886
18.24313	-4.61398	-1.69886
18.24720	-4.57004	-1.69886
18.25125	-4.52609	-1.69886
18.25531	-4.52609	-1.69886
18.25959	-4.48214	-1.69886
18.26368	-4.43820	-1.69886
18.26774	-4.39425	-1.69886
18.27180	-4.32834	-1.69886
18.27586	-4.32834	-1.69886
18.27993	-4.28439	-1.69886
18.28399	-4.24045	-1.69886
18.28807	-4.17453	-1.69886
18.29213	-4.13058	-1.69886
18.29619	-4.13058	-1.69886
18.30025	-4.06466	-1.69886
18.30431	-4.02072	-1.69886
18.30837	-3.97677	-1.69886
18.31243	-3.93283	-1.69886
18.31649	-3.93283	-1.69886
18.32055	-3.86691	-1.69886
18.32461	-3.82297	-1.69886
18.32867	-3.75705	-1.69886
18.33273	-3.71310	-1.69886
18.33679	-3.71310	-1.69886
18.34085	-3.64718	-1.69886
18.34491	-3.58127	-1.69886
18.34897	-3.53732	-1.69886
18.35303	-3.47140	-1.69886
18.35709	-3.40548	-1.69886
18.36142	-3.40548	-1.69886
18.36548	-3.36154	-1.69886
18.36955	-3.29562	-1.69886
18.37361	-3.22970	-1.69886
18.37767	-3.18576	-1.69886
18.38173	-3.18576	-1.69886
18.38579	-3.11984	-1.69886
18.38985	-3.05392	-1.69886
18.39391	-3.00998	-1.69886
18.39797	-2.92209	-1.69886
18.40203	-2.85617	-1.69886
18.40609	-2.85617	-1.69886
18.41015	-2.81222	-1.69886
18.41421	-2.74631	-1.69886
18.41827	-2.65841	-1.69886
18.42233	-2.59250	-1.69886
18.42639	-2.59250	-1.69886
18.43045	-2.52658	-1.69886
18.43451	-2.48263	-1.69886
18.43857	-2.41672	-1.69886
18.44263	-2.35080	-1.69886
18.44669	-2.26291	-1.69886
18.45075	-2.26291	-1.69886
18.45480	-2.19699	-1.69886
18.45886	-2.13107	-1.69886
18.46315	-2.06515	-1.69886
18.46720	-1.99923	-1.69886
18.47126	-1.99923	-1.69886
18.47532	-1.93332	-1.69886
18.47938	-1.86740	-1.69886
18.48343	-1.80148	-1.69886
18.48749	-1.71359	-1.69886
18.49155	-1.71359	-1.69886
18.49562	-1.64767	-1.69886
18.49968	-1.58175	-1.69886
18.50375	-1.49386	-1.69886
18.50781	-1.42795	-1.69886
18.51188	-1.42795	-1.69886
18.51601	-1.34006	-1.69886
18.52009	-1.27414	-1.69886
18.52415	-1.20822	-1.69886
18.52823	-1.14230	-1.69886
18.53232	-1.14230	-1.69886
18.53638	-1.05441	-1.69886
18.54044	-0.98849	-1.69886
18.54449	-0.90060	-1.69886
18.54855	-0.83468	-1.69886
18.55261	-0.83468	-1.69886
18.55667	-0.74679	-1.69886
18.56073	-0.68088	-1.69886
18.56501	-0.61496	-1.69886
18.56907	-0.54904	-1.69886
18.57313	-0.46115	-1.69886
18.57719	-0.46115	-1.69886
18.58125	-0.37326	-1.69886
18.58531	-0.30734	-1.69886
18.58937	-0.24142	-1.69886
18.59344	-0.15353	-1.69886
18.59753	-0.15353	-1.69886
18.60159	-0.06564	-1.69886
18.60565	-0.02170	-1.69886
18.60971	0.06619	-1.69886
18.61382	0.15409	-1.69886
18.61790	0.22000	-1.69886
18.62197	0.22000	-1.69886
18.62604	0.30789	-1.69886
18.63011	0.39578	-1.69886
18.63417	0.46170	-1.69886
18.63823	0.54959	-1.69886
18.64229	0.54959	-1.69886
18.64635	0.61551	-1.69886
18.65041	0.68143	-1.69886
18.65447	0.76932	-1.69886
18.65853	0.85721	-1.69886
18.66260	0.85721	-1.69886
18.66687	0.92313	-1.69886
18.67092	1.01102	-1.69886
18.67498	1.09891	-1.69886
18.67904	1.16483	-1.69886
18.68310	1.16483	-1.69886
18.68716	1.25272	-1.69886
18.69122	1.31864	-1.69886
18.69580	1.38455	-1.69886
18.69986	1.45047	-1.69886
18.70392	1.56034	-1.69886
18.70798	1.62625	-1.69886
18.71204	1.62625	-1.69886
18.71610	1.71414	-1.69886
18.72016	1.80203	-1.69886
18.72422	1.86795	-1.69886
18.72828	1.86795	-1.69886
18.73234	1.95584	-1.69886
18.73639	2.02176	-1.69886
18.74045	2.08768	-1.69886
18.74451	2.17557	-1.69886
18.74857	2.26346	-1.69886
18.75263	2.26346	-1.69886
18.75669	2.32938	-1.69886
18.76089	2.41727	-1.69886
18.76495	2.50516	-1.69886
18.76922	2.57108	-1.69886
18.77328	2.57108	-1.69886
18.77760	2.65897	-1.69886
18.78166	2.74686	-1.69886
18.78571	2.81278	-1.69886
18.78977	2.87869	-1.69886
18.79427	2.96659	-1.69886
18.79834	2.96659	-1.69886
18.80240	3.05448	-1.69886
18.80645	3.12039	-1.69886
18.81051	3.20828	-1.69886
18.81457	3.27420	-1.69886
18.81863	3.34012	-1.69886
18.82269	3.34012	-1.69886
18.82675	3.40604	-1.69886
18.83081	3.49393	-1.69886
18.83487	3.55985	-1.69886
18.83892	3.64774	-1.69886
18.84298	3.64774	-1.69886
18.84705	3.71366	-1.69886
18.85111	3.80155	-1.69886
18.85517	3.86746	-1.69886
18.85923	3.93338	-1.69886
18.86329	3.93338	-1.69886
18.86735	3.99930	-1.69886
18.87163	4.06522	-1.69886
18.87569	4.15311	-1.69886
18.87975	4.21903	-1.69886
18.88381	4.21903	-1.69886
18.88787	4.30692	-1.69886
18.89192	4.37284	-1.69886
18.89598	4.43875	-1.69886
18.90004	4.50467	-1.69886
18.90410	4.57059	-1.69886
18.90816	4.57059	-1.69886
18.91222	4.63651	-1.69886
18.91628	4.70243	-1.69886
18.92033	4.76834	-1.69886
18.92439	4.83426	-1.69886
18.92845	4.83426	-1.69886
18.93251	4.90018	-1.69886
18.93656	4.98807	-1.69886
18.94062	5.03202	-1.69886
18.94468	5.09793	-1.69886
18.94873	5.16385	-1.69886
18.95279	5.16385	-1.69886
18.95685	5.22977	-1.69886
18.96091	5.29569	-1.69886
18.96497	5.36161	-1.69886
18.96902	5.40555	-1.69886
18.97332	5.40555	-1.69886
18.97738	5.47147	-1.69886
18.98144	5.53739	-1.69886
18.98550	5.58133	-1.69886
18.98955	5.64725	-1.69886
18.99361	5.69119	-1.69886
18.99767	5.69119	-1.69886
19.00174	5.75711	-1.69886
19.00580	5.82303	-1.69886
19.00985	5.88895	-1.69886
19.01391	5.88895	-1.69886
19.01797	5.93289	-1.69886
19.02202	5.99881	-1.69886
19.02608	6.04276	-1.69886
19.03014	6.10868	-1.69886
19.03419	6.10868	-1.69886
19.03825	6.15262	-1.69886
19.04231	6.21854	-1.69886
19.04637	6.26248	-1.69886
19.05042	6.30643	-1.69886
19.05448	6.30643	-1.69886
19.05854	6.35037	-1.69886
19.06260	6.41629	-1.69886
19.06666	6.46024	-1.69886
19.07071	6.50418	-1.69886
19.07501	6.54813	-1.69886
19.07907	6.54813	-1.69886
19.08312	6.59207	-1.69886
19.08718	6.63602	-1.69886
19.09124	6.70194	-1.69886
19.09530	6.74588	-1.69886
19.09936	6.74588	-1.69886
19.10343	6.78983	-1.69886
19.10748	6.83377	-1.69886
19.11154	6.85575	-1.69886
19.11560	6.89969	-1.69886
19.11966	6.94364	-1.69886
19.12371	6.94364	-1.69886
19.12777	6.98758	-1.69886
19.13183	7.03153	-1.69886
19.13588	7.05350	-1.69886
19.13992	7.05350	-1.69886
19.14398	7.09744	-1.69886
19.14804	7.14139	-1.69886
19.15210	7.16336	-1.69886
19.15615	7.20731	-1.69886
19.16021	7.25125	-1.69886
19.16427	7.25125	-1.69886
19.16833	7.27323	-1.69886
19.17239	7.31717	-1.69886
19.17667	7.33914	-1.69886
19.18073	7.38309	-1.69886
19.18479	7.38309	-1.69886
19.18886	7.40506	-1.69886
19.19292	7.44901	-1.69886
19.19698	7.47098	-1.69886
19.20103	7.49295	-1.69886
19.20522	7.53690	-1.69886
19.20929	7.53690	-1.69886
19.21338	7.53690	-1.69886
19.21744	7.58084	-1.69886
19.22149	7.60282	-1.69886
19.22555	7.62479	-1.69886
19.22961	7.62479	-1.69886
19.23366	7.66873	-1.69886
19.23772	7.66873	-1.69886
19.24178	7.69071	-1.69886
19.24583	7.71268	-1.69886
19.24989	7.73465	-1.69886
19.25395	7.73465	-1.69886
19.25800	7.75662	-1.69886
19.26207	7.77860	-1.69886
19.26622	7.80057	-1.69886
19.27028	7.82254	-1.69886
19.27434	7.82254	-1.69886
19.27863	7.82254	-1.69886
19.28269	7.86649	-1.69886
19.28674	7.86649	-1.69886
19.29081	7.88846	-1.69886
19.29487	7.88846	-1.69886
19.29892	7.91043	-1.69886
19.30298	7.91043	-1.69886
19.30707	7.93241	-1.69886
19.31113	7.93241	-1.69886
19.31522	7.93241	-1.69886
19.31928	7.95438	-1.69886
19.32334	7.95438	-1.69886
19.32739	7.97635	-1.69886
19.33145	7.97635	-1.69886
19.33551	7.97635	-1.69886
19.33957	7.97635	-1.69886
19.34363	7.99832	-1.69886
19.34770	7.99832	-1.69886
19.35176	7.99832	-1.69886
19.35582	7.99832	-1.69886
19.35987	7.99832	-1.69886
19.36392	7.99832	-1.69886
19.36798	8.02030	-1.69886
19.37204	8.02030	-1.69886
19.37610	8.02030	-1.69886
19.38120	7.99832	-1.69886
19.38528	7.99832	-1.69886
19.38935	7.99832	-1.69886
19.39342	8.02030	-1.69886
19.39748	8.02030	-1.69886
19.40154	8.02030	-1.69886
19.40560	8.02030	-1.69886
19.40969	8.02030	-1.69886
19.41376	7.99832	-1.69886
19.41782	7.99832	-1.69886
19.42188	7.99832	-1.69886
19.42593	7.99832	-1.69886
19.43008	7.99832	-1.69886
19.43414	7.99832	-1.69886
19.43821	7.97635	-1.69886
19.44257	7.97635	-1.69886
19.44663	7.97635	-1.69886
19.45069	7.97635	-1.69886
19.45475	7.95438	-1.69886
19.45880	7.95438	-1.69886
19.46286	7.93241	-1.69886
19.46692	7.93241	-1.69886
19.47098	7.91043	-1.69886
19.47503	7.91043	-1.69886
19.47909	7.91043	-1.69886
19.48336	7.88846	-1.69886
19.48742	7.88846	-1.69886
19.49148	7.86649	-1.69886
19.49554	7.86649	-1.69886
19.49960	7.86649	-1.69886
19.50366	7.84452	-1.69886
19.50771	7.84452	-1.69886
19.51187	7.80057	-1.69886
19.51595	7.80057	-1.69886
19.52001	7.80057	-1.69886
19.52407	7.77860	-1.69886
19.52813	7.75662	-1.69886
19.53219	7.75662	-1.69886
19.53625	7.75662	-1.69886
19.54030	7.71268	-1.69886
19.54436	7.69071	-1.69886
19.54842	7.69071	-1.69886
19.55247	7.66873	-1.69886
19.55653	7.66873	-1.69886
19.56059	7.64676	-1.69886
19.56465	7.62479	-1.69886
19.56870	7.60282	-1.69886
19.57276	7.58084	-1.69886
19.57681	7.58084	-1.69886
19.58087	7.55887	-1.69886
19.58516	7.53690	-1.69886
19.58922	7.51493	-1.69886
19.59327	7.49295	-1.69886
19.59733	7.47098	-1.69886
19.60139	7.47098	-1.69886
19.60544	7.42703	-1.69886
19.60950	7.40506	-1.69886
19.61410	7.38309	-1.69886
19.61817	7.36112	-1.69886
19.62223	7.36112	-1.69886
19.62628	7.33914	-1.69886
19.63034	7.29520	-1.69886
19.63440	7.27323	-1.69886
19.63846	7.25125	-1.69886
19.64253	7.22928	-1.69886
19.64659	7.22928	-1.69886
19.65064	7.18534	-1.69886
19.65470	7.16336	-1.69886
19.65876	7.11942	-1.69886
19.66281	7.09744	-1.69886
19.66687	7.09744	-1.69886
19.67093	7.05350	-1.69886
19.67499	7.03153	-1.69886
19.67904	7.00955	-1.69886
19.68311	6.96561	-1.69886
19.68741	6.94364	-1.69886
19.69147	6.94364	-1.69886
19.69553	6.92166	-1.69886
19.69960	6.87772	-1.69886
19.70366	6.83377	-1.69886
19.70772	6.81180	-1.69886
19.71178	6.76786	-1.69886
19.71597	6.76786	-1.69886
19.72004	6.74588	-1.69886
19.72409	6.70194	-1.69886
19.72815	6.65799	-1.69886
19.73221	6.63602	-1.69886
19.73627	6.63602	-1.69886
19.74033	6.59207	-1.69886
19.74439	6.57010	-1.69886
19.74844	6.52616	-1.69886
19.75250	6.48221	-1.69886
19.75656	6.46024	-1.69886
19.76062	6.46024	-1.69886
19.76467	6.41629	-1.69886
19.76873	6.37235	-1.69886
19.77279	6.35037	-1.69886
19.77684	6.35037	-1.69886
19.78090	6.30643	-1.69886
19.78496	6.26248	-1.69886
19.78924	6.24051	-1.69886
19.79330	6.19657	-1.69886
19.79736	6.19657	-1.69886
19.80141	6.15262	-1.69886
19.80547	6.10868	-1.69886
19.80953	6.06473	-1.69886
19.81359	6.04276	-1.69886
19.81765	6.04276	-1.69886
19.82171	5.99881	-1.69886
19.82577	5.95487	-1.69886
19.82982	5.91092	-1.69886
19.83388	5.86698	-1.69886
19.83794	5.86698	-1.69886
19.84200	5.82303	-1.69886
19.84606	5.77909	-1.69886
19.85012	5.75711	-1.69886
19.85417	5.71317	-1.69886
19.85823	5.66922	-1.69886
19.86229	5.66922	-1.69886
19.86635	5.62528	-1.69886
19.87040	5.58133	-1.69886
19.87446	5.55936	-1.69886
19.87852	5.51541	-1.69886
19.88258	5.47147	-1.69886
19.88664	5.47147	-1.69886
19.89093	5.42752	-1.69886
19.89498	5.38358	-1.69886
19.89904	5.33963	-1.69886
19.90310	5.29569	-1.69886
19.90717	5.29569	-1.69886
19.91122	5.25174	-1.69886
19.91528	5.20780	-1.69886
19.91935	5.16385	-1.69886
19.92341	5.09793	-1.69886
19.92747	5.07596	-1.69886
19.93152	5.07596	-1.69886
19.93558	5.05399	-1.69886
19.93964	4.98807	-1.69886
19.94370	4.94412	-1.69886
19.94776	4.94412	-1.69886
19.95182	4.90018	-1.69886
19.95587	4.85623	-1.69886
19.95993	4.81229	-1.69886
19.96399	4.76834	-1.69886
19.96804	4.72440	-1.69886
19.97210	4.72440	-1.69886
19.97616	4.70243	-1.69886
19.98022	4.63651	-1.69886
19.98427	4.59256	-1.69886
19.98833	4.54862	-1.69886
19.99260	4.54862	-1.69886
19.99666	4.50467	-1.69886
20.00072	4.46073	-1.69886
20.00477	4.41678	-1.69886
20.00883	4.37284	-1.69886
20.01289	4.32889	-1.69886
20.01695	4.32889	-1.69886
20.02102	4.28494	-1.69886
20.02507	4.24100	-1.69886
20.02913	4.19705	-1.69886
20.03319	4.15311	-1.69886
20.03725	4.15311	-1.69886
20.04130	4.10916	-1.69886
20.04536	4.06522	-1.69886
20.04942	4.02127	-1.69886
20.05348	3.97733	-1.69886
20.05753	3.97733	-1.69886
20.06159	3.93338	-1.69886
20.06565	3.86746	-1.69886
20.06970	3.82352	-1.69886
20.07376	3.82352	-1.69886
20.07782	3.77957	-1.69886
20.08188	3.73563	-1.69886
20.08593	3.69168	-1.69886
20.08999	3.64774	-1.69886
20.09427	3.64774	-1.69886
20.09833	3.60379	-1.69886
20.10239	3.55985	-1.69886
20.10644	3.51590	-1.69886
20.11050	3.47196	-1.69886
20.11456	3.42801	-1.69886
20.11863	3.42801	-1.69886
20.12269	3.38407	-1.69886
20.12675	3.34012	-1.69886
20.13081	3.27420	-1.69886
20.13487	3.23026	-1.69886
20.13892	3.20828	-1.69886
20.14298	3.20828	-1.69886
20.14704	3.16434	-1.69886
20.15110	3.12039	-1.69886
20.15515	3.07645	-1.69886
20.15921	3.03250	-1.69886
20.16327	3.03250	-1.69886
20.16732	2.96659	-1.69886
20.17138	2.94461	-1.69886
20.17544	2.87869	-1.69886
20.17950	2.83475	-1.69886
20.18356	2.81278	-1.69886
20.18762	2.81278	-1.69886
20.19168	2.76883	-1.69886
20.19597	2.72489	-1.69886
20.20003	2.68094	-1.69886
20.20408	2.63700	-1.69886
20.20814	2.63700	-1.69886
20.21220	2.59305	-1.69886
20.21626	2.54911	-1.69886
20.22031	2.50516	-1.69886
20.22437	2.46121	-1.69886
20.22844	2.46121	-1.69886
20.23249	2.41727	-1.69886
20.23655	2.37332	-1.69886
20.24061	2.32938	-1.69886
20.24467	2.28543	-1.69886
20.24872	2.28543	-1.69886
20.25278	2.24149	-1.69886
20.25684	2.21952	-1.69886
20.26090	2.15360	-1.69886
20.26496	2.13162	-1.69886
20.26901	2.08768	-1.69886
20.27307	2.08768	-1.69886
20.27713	2.06571	-1.69886
20.28119	1.99979	-1.69886
20.28524	1.97782	-1.69886
20.28930	1.93387	-1.69886
20.29336	1.93387	-1.69886
20.29763	1.88993	-1.69886
20.30169	1.84598	-1.69886
20.30575	1.82401	-1.69886
20.30981	1.78006	-1.69886
20.31387	1.78006	-1.69886
20.31792	1.73612	-1.69886
20.32198	1.69217	-1.69886
20.32604	1.67020	-1.69886
20.33011	1.62625	-1.69886
20.33416	1.62625	-1.69886
20.33822	1.60428	-1.69886
20.34228	1.56034	-1.69886
20.34633	1.51639	-1.69886
20.35039	1.51639	-1.69886
20.35445	1.49442	-1.69886
20.35850	1.47244	-1.69886
20.36256	1.40653	-1.69886
20.36662	1.38455	-1.69886
20.37068	1.36258	-1.69886
20.37473	1.36258	-1.69886
20.37879	1.31864	-1.69886
20.38285	1.29666	-1.69886
20.38691	1.25272	-1.69886
20.39096	1.23075	-1.69886
20.39502	1.18680	-1.69886
20.39929	1.18680	-1.69886
20.40335	1.16483	-1.69886
20.40741	1.14286	-1.69886
20.41147	1.09891	-1.69886
20.41552	1.07694	-1.69886
20.41958	1.07694	-1.69886
20.42364	1.03299	-1.69886
20.42770	1.01102	-1.69886
20.43176	0.98905	-1.69886
20.43582	0.94510	-1.69886
20.43988	0.94510	-1.69886
20.44393	0.94510	-1.69886
20.44799	0.90116	-1.69886
20.45204	0.87918	-1.69886
20.45610	0.85721	-1.69886
20.46017	0.83524	-1.69886
20.46423	0.83524	-1.69886
20.46829	0.81327	-1.69886
20.47235	0.79129	-1.69886
20.47645	0.74735	-1.69886
20.48051	0.72537	-1.69886
20.48457	0.70340	-1.69886
20.48863	0.70340	-1.69886
20.49268	0.68143	-1.69886
20.49678	0.65946	-1.69886
20.50113	0.63748	-1.69886
20.50520	0.61551	-1.69886
20.50926	0.61551	-1.69886
20.51332	0.59354	-1.69886
20.51738	0.57157	-1.69886
20.52147	0.54959	-1.69886
20.52552	0.52762	-1.69886
20.52959	0.50565	-1.69886
20.53365	0.50565	-1.69886
20.53771	0.50565	-1.69886
20.54176	0.48368	-1.69886
20.54582	0.46170	-1.69886
20.54988	0.46170	-1.69886
20.55394	0.43973	-1.69886
20.55800	0.41776	-1.69886
20.56206	0.39578	-1.69886
20.56612	0.37381	-1.69886
20.57017	0.37381	-1.69886
20.57423	0.37381	-1.69886
20.57829	0.35184	-1.69886
20.58235	0.32987	-1.69886
20.58640	0.32987	-1.69886
20.59046	0.32987	-1.69886
20.59452	0.30789	-1.69886
20.59858	0.28592	-1.69886
20.60284	0.28592	-1.69886
20.60690	0.26395	-1.69886
20.61104	0.26395	-1.69886
20.61513	0.26395	-1.69886
20.61919	0.24198	-1.69886
20.62326	0.24198	-1.69886
20.62733	0.24198	-1.69886
20.63140	0.22000	-1.69886
20.63546	0.22000	-1.69886
20.63952	0.19803	-1.69886
20.64358	0.19803	-1.69886
20.64764	0.19803	-1.69886
20.65170	0.17606	-1.69886
20.65575	0.17606	-1.69886
20.65981	0.17606	-1.69886
20.66387	0.17606	-1.69886
20.66792	0.15409	-1.69886
20.67198	0.15409	-1.69886
20.67604	0.15409	-1.69886
20.68010	0.15409	-1.69886
20.68415	0.15409	-1.69886
20.68821	0.15409	-1.69886
20.69227	0.13211	-1.69886
20.69632	0.13211	-1.69886
20.70038	0.13211	-1.69886
20.70465	0.13211	-1.69886
20.70871	0.13211	-1.69886
20.71277	0.13211	-1.69886
20.71683	0.13211	-1.69886
20.72089	0.13211	-1.69886
20.72495	0.13211	-1.69886
20.72901	0.13211	-1.69886
20.73309	0.11014	-1.69886
20.73715	0.13211	-1.69886
20.74121	0.13211	-1.69886
20.74527	0.13211	-1.69886
20.74933	0.13211	-1.69886
20.75339	0.13211	-1.69886
20.75745	0.13211	-1.69886
20.76151	0.13211	-1.69886
20.76557	0.13211	-1.69886
20.76963	0.13211	-1.69886
20.77369	0.13211	-1.69886
20.77775	0.13211	-1.69886
20.78181	0.13211	-1.69886
20.78587	0.13211	-1.69886
20.78992	0.13211	-1.69886
20.79398	0.13211	-1.69886
20.79804	0.15409	-1.69886
20.80210	0.15409	-1.69886
20.80637	0.15409	-1.69886
20.81043	0.15409	-1.69886
20.81449	0.17606	-1.69886
20.81855	0.17606	-1.69886
20.82261	0.17606	-1.69886
20.82667	0.19803	-1.69886
20.83073	0.19803	-1.69886
20.83479	0.17606	-1.69886
20.83885	0.19803	-1.69886
20.84291	0.22000	-1.69886
20.84697	0.22000	-1.69886
20.85103	0.22000	-1.69886
20.85509	0.24198	-1.69886
20.85915	0.24198	-1.69886
20.86321	0.24198	-1.69886
20.86727	0.26395	-1.69886
20.87133	0.26395	-1.69886
20.87539	0.26395	-1.69886
20.87945	0.28592	-1.69886
20.88351	0.30789	-1.69886
20.88756	0.30789	-1.69886
20.89162	0.30789	-1.69886
20.89568	0.32987	-1.69886
20.89974	0.32987	-1.69886
20.90380	0.35184	-1.69886
20.90809	0.37381	-1.69886
20.91215	0.37381	-1.69886
20.91621	0.37381	-1.69886
20.92027	0.39578	-1.69886
20.92433	0.39578	-1.69886
20.92839	0.41776	-1.69886
20.93245	0.43973	-1.69886
20.93651	0.43973	-1.69886
20.94057	0.43973	-1.69886
20.94463	0.46170	-1.69886
20.94869	0.48368	-1.69886
20.95275	0.50565	-1.69886
20.95681	0.52762	-1.69886
20.96088	0.52762	-1.69886
20.96494	0.52762	-1.69886
20.96900	0.54959	-1.69886
20.97306	0.57157	-1.69886
20.97712	0.59354	-1.69886
20.98119	0.59354	-1.69886
20.98524	0.61551	-1.69886
20.98930	0.61551	-1.69886
20.99337	0.63748	-1.69886
20.99743	0.65946	-1.69886
21.00149	0.65946	-1.69886
21.00554	0.68143	-1.69886
21.00983	0.68143	-1.69886
21.01389	0.72537	-1.69886
21.01795	0.72537	-1.69886
21.02200	0.72537	-1.69886
21.02606	0.74735	-1.69886
21.03012	0.79129	-1.69886
21.03418	0.81327	-1.69886
21.03824	0.83524	-1.69886
21.04230	0.83524	-1.69886
21.04636	0.83524	-1.69886
21.05042	0.85721	-1.69886
21.05448	0.87918	-1.69886
21.05854	0.90116	-1.69886
21.06260	0.92313	-1.69886
21.06666	0.92313	-1.69886
21.07072	0.94510	-1.69886
21.07478	0.96707	-1.69886
21.07884	0.98905	-1.69886
21.08290	1.01102	-1.69886
21.08695	1.01102	-1.69886
21.09101	1.03299	-1.69886
21.09507	1.05496	-1.69886
21.09913	1.07694	-1.69886
21.10318	1.12088	-1.69886
21.10724	1.12088	-1.69886
21.11153	1.14286	-1.69886
21.11559	1.14286	-1.69886
21.11964	1.18680	-1.69886
21.12370	1.20877	-1.69886
21.12777	1.23075	-1.69886
21.13183	1.23075	-1.69886
21.13588	1.25272	-1.69886
21.13994	1.27469	-1.69886
21.14400	1.29666	-1.69886
21.14806	1.29666	-1.69886
21.15212	1.31864	-1.69886
21.15618	1.34061	-1.69886
21.16024	1.38455	-1.69886
21.16430	1.38455	-1.69886
21.16835	1.42850	-1.69886
21.17241	1.42850	-1.69886
21.17647	1.45047	-1.69886
21.18053	1.47244	-1.69886
21.18459	1.49442	-1.69886
21.18865	1.51639	-1.69886
21.19270	1.51639	-1.69886
21.19676	1.53836	-1.69886
21.20082	1.56034	-1.69886
21.20488	1.60428	-1.69886
21.20893	1.62625	-1.69886
21.21322	1.64823	-1.69886
21.21728	1.64823	-1.69886
21.22134	1.67020	-1.69886
21.22540	1.69217	-1.69886
21.22946	1.71414	-1.69886
21.23352	1.75809	-1.69886
21.23758	1.75809	-1.69886
21.24165	1.78006	-1.69886
21.24571	1.80203	-1.69886
21.24977	1.82401	-1.69886
21.25383	1.84598	-1.69886
21.25788	1.88993	-1.69886
21.26194	1.88993	-1.69886
21.26601	1.91190	-1.69886
21.27007	1.93387	-1.69886
21.27412	1.97782	-1.69886
21.27818	1.97782	-1.69886
21.28224	1.99979	-1.69886
21.28630	2.02176	-1.69886
21.29036	2.04373	-1.69886
21.29442	2.06571	-1.69886
21.29848	2.08768	-1.69886
21.30253	2.08768	-1.69886
21.30659	2.13162	-1.69886
21.31065	2.15360	-1.69886
21.31493	2.17557	-1.69886
21.31899	2.19754	-1.69886
21.32305	2.19754	-1.69886
21.32711	2.21952	-1.69886
21.33116	2.24149	-1.69886
21.33522	2.28543	-1.69886
21.33928	2.30741	-1.69886
21.34335	2.30741	-1.69886
21.34741	2.32938	-1.69886
21.35146	2.35135	-1.69886
21.35552	2.39530	-1.69886
21.35958	2.41727	-1.69886
21.36364	2.41727	-1.69886
21.36770	2.43924	-1.69886
21.37176	2.46121	-1.69886
21.37581	2.48319	-1.69886
21.37987	2.50516	-1.69886
21.38393	2.52713	-1.69886
21.38798	2.52713	-1.69886
21.39204	2.54911	-1.69886
21.39610	2.59305	-1.69886
21.40015	2.61502	-1.69886
21.40421	2.63700	-1.69886
21.40827	2.63700	-1.69886
21.41233	2.65897	-1.69886
21.41661	2.68094	-1.69886
21.42067	2.70291	-1.69886
21.42472	2.72489	-1.69886
21.42879	2.74686	-1.69886
21.43284	2.74686	-1.69886
21.43690	2.76883	-1.69886
21.44096	2.81278	-1.69886
21.44502	2.83475	-1.69886
21.44908	2.83475	-1.69886
21.45314	2.85672	-1.69886
21.45720	2.87869	-1.69886
21.46126	2.90067	-1.69886
21.46532	2.92264	-1.69886
21.46938	2.94461	-1.69886
21.47344	2.94461	-1.69886
21.47750	2.96659	-1.69886
21.48156	2.98856	-1.69886
21.48562	3.01053	-1.69886
21.48968	3.03250	-1.69886
21.49374	3.03250	-1.69886
21.49779	3.05448	-1.69886
21.50185	3.07645	-1.69886
21.50591	3.09842	-1.69886
21.50997	3.12039	-1.69886
21.51403	3.12039	-1.69886
21.51831	3.12039	-1.69886
21.52237	3.16434	-1.69886
21.52643	3.18631	-1.69886
21.53050	3.18631	-1.69886
21.53456	3.20828	-1.69886
21.53862	3.20828	-1.69886
21.54268	3.23026	-1.69886
21.54675	3.25223	-1.69886
21.55081	3.27420	-1.69886
21.55487	3.29618	-1.69886
21.55893	3.31815	-1.69886
21.56298	3.31815	-1.69886
21.56705	3.31815	-1.69886
21.57110	3.34012	-1.69886
21.57516	3.36209	-1.69886
21.57922	3.36209	-1.69886
21.58328	3.38407	-1.69886
21.58734	3.40604	-1.69886
21.59139	3.42801	-1.69886
21.59545	3.42801	-1.69886
21.59951	3.42801	-1.69886
21.60357	3.44998	-1.69886
21.60762	3.47196	-1.69886
21.61168	3.49393	-1.69886
21.61574	3.51590	-1.69886
21.62003	3.51590	-1.69886
21.62409	3.51590	-1.69886
21.62814	3.53787	-1.69886
21.63220	3.55985	-1.69886
21.63626	3.55985	-1.69886
21.64032	3.58182	-1.69886
21.64438	3.58182	-1.69886
21.64845	3.60379	-1.69886
21.65251	3.60379	-1.69886
21.65657	3.62577	-1.69886
21.66063	3.64774	-1.69886
21.66469	3.64774	-1.69886
21.66874	3.64774	-1.69886
21.67280	3.66971	-1.69886
21.67686	3.69168	-1.69886
21.68092	3.69168	-1.69886
21.68498	3.71366	-1.69886
21.68904	3.71366	-1.69886
21.69310	3.73563	-1.69886
21.69715	3.73563	-1.69886
21.70121	3.75760	-1.69886
21.70527	3.75760	-1.69886
21.70933	3.75760	-1.69886
21.71338	3.77957	-1.69886
21.71744	3.77957	-1.69886
21.72172	3.80155	-1.69886
21.72578	3.80155	-1.69886
21.72984	3.82352	-1.69886
21.73390	3.82352	-1.69886
21.73796	3.84549	-1.69886
21.74202	3.84549	-1.69886
21.74608	3.86746	-1.69886
21.75015	3.86746	-1.69886
21.75421	3.86746	-1.69886
21.75827	3.86746	-1.69886
21.76233	3.88944	-1.69886
21.76639	3.88944	-1.69886
21.77045	3.91141	-1.69886
21.77450	3.91141	-1.69886
21.77857	3.91141	-1.69886
21.78262	3.93338	-1.69886
21.78668	3.93338	-1.69886
21.79074	3.93338	-1.69886
21.79480	3.93338	-1.69886
21.79886	3.95536	-1.69886
21.80291	3.95536	-1.69886
21.80697	3.95536	-1.69886
21.81103	3.97733	-1.69886
21.81509	3.97733	-1.69886
21.81914	3.97733	-1.69886
21.82342	3.97733	-1.69886
21.82749	3.99930	-1.69886
21.83154	3.99930	-1.69886
21.83560	3.99930	-1.69886
21.83966	3.99930	-1.69886
21.84372	3.99930	-1.69886
21.84778	4.02127	-1.69886
21.85185	4.02127	-1.69886
21.85591	4.02127	-1.69886
21.85992	4.02127	-1.69886
21.86398	4.02127	-1.69886
21.86804	4.02127	-1.69886
21.87210	4.02127	-1.69886
21.87616	4.02127	-1.69886
21.88022	4.02127	-1.69886
21.88427	4.02127	-1.69886
21.88833	4.04325	-1.69886
21.89239	4.04325	-1.69886
21.89644	4.04325	-1.69886
21.90050	4.04325	-1.69886
21.90456	4.04325	-1.69886
21.90862	4.04325	-1.69886
21.91267	4.04325	-1.69886
21.91673	4.04325	-1.69886
21.92079	4.04325	-1.69886
21.92507	4.06522	-1.69886
21.92913	4.04325	-1.69886
21.93319	4.04325	-1.69886
21.93725	4.04325	-1.69886
21.94131	4.04325	-1.69886
21.94537	4.04325	-1.69886
21.94943	4.04325	-1.69886
21.95351	4.04325	-1.69886
21.95756	4.04325	-1.69886
21.96162	4.04325	-1.69886
21.96568	4.04325	-1.69886
21.96974	4.04325	-1.69886
21.97380	4.04325	-1.69886
21.97785	4.04325	-1.69886
21.98191	4.04325	-1.69886
21.98597	4.04325	-1.69886
21.99003	4.04325	-1.69886
21.99408	4.04325	-1.69886
21.99814	4.04325	-1.69886
22.00220	4.04325	-1.69886
22.00625	4.04325	-1.69886
22.01031	4.04325	-1.69886
22.01437	4.02127	-1.69886
22.01843	4.02127	-1.69886
22.02249	4.02127	-1.69886
22.02678	4.02127	-1.69886
22.03083	4.02127	-1.69886
22.03489	4.02127	-1.69886
22.03895	4.02127	-1.69886
22.04301	3.99930	-1.69886
22.04707	3.99930	-1.69886
22.05113	3.99930	-1.69886
22.05520	3.99930	-1.69886
22.05926	3.99930	-1.69886
22.06332	3.97733	-1.69886
22.06738	3.97733	-1.69886
22.07144	3.97733	-1.69886
22.07550	3.97733	-1.69886
22.07956	3.97733	-1.69886
22.08362	3.97733	-1.69886
22.08768	3.97733	-1.69886
22.09174	3.95536	-1.69886
22.09580	3.95536	-1.69886
22.09986	3.95536	-1.69886
22.10392	3.95536	-1.69886
22.10798	3.93338	-1.69886
22.11204	3.93338	-1.69886
22.11610	3.93338	-1.69886
22.12015	3.93338	-1.69886
22.12421	3.93338	-1.69886
22.12849	3.93338	-1.69886
22.13255	3.91141	-1.69886
22.13662	3.91141	-1.69886
22.14068	3.91141	-1.69886
22.14474	3.91141	-1.69886
22.14880	3.88944	-1.69886
22.15286	3.88944	-1.69886
22.15692	3.88944	-1.69886
22.16098	3.88944	-1.69886
22.16504	3.88944	-1.69886
22.16910	3.86746	-1.69886
22.17317	3.86746	-1.69886
22.17723	3.86746	-1.69886
22.18129	3.84549	-1.69886
22.18535	3.84549	-1.69886
22.18941	3.84549	-1.69886
22.19347	3.84549	-1.69886
22.19753	3.82352	-1.69886
22.20159	3.82352	-1.69886
22.20564	3.82352	-1.69886
22.20970	3.82352	-1.69886
22.21376	3.80155	-1.69886
22.21782	3.80155	-1.69886
22.22187	3.80155	-1.69886
22.22593	3.80155	-1.69886
22.23022	3.77957	-1.69886
22.23427	3.77957	-1.69886
22.23834	3.77957	-1.69886
22.24240	3.75760	-1.69886
22.24646	3.75760	-1.69886
22.25052	3.75760	-1.69886
22.25458	3.75760	-1.69886
22.25864	3.73563	-1.69886
22.26271	3.73563	-1.69886
22.26677	3.73563	-1.69886
22.27083	3.73563	-1.69886
22.27489	3.71366	-1.69886
22.27895	3.71366	-1.69886
22.28301	3.71366	-1.69886
22.28707	3.69168	-1.69886
22.29112	3.69168	-1.69886
22.29518	3.69168	-1.69886
22.29924	3.66971	-1.69886
22.30330	3.66971	-1.69886
22.30735	3.66971	-1.69886
22.31141	3.66971	-1.69886
22.31547	3.66971	-1.69886
22.31952	3.64774	-1.69886
22.32358	3.64774	-1.69886
22.32764	3.64774	-1.69886
22.33193	3.64774	-1.69886
22.33599	3.62577	-1.69886
22.34005	3.62577	-1.69886
22.34411	3.60379	-1.69886
22.34816	3.60379	-1.69886
22.35222	3.60379	-1.69886
22.35628	3.60379	-1.69886
22.36034	3.60379	-1.69886
22.36440	3.58182	-1.69886
22.36846	3.58182	-1.69886
22.37252	3.58182	-1.69886
22.37661	3.55985	-1.69886
22.38067	3.55985	-1.69886
22.38473	3.55985	-1.69886
22.38879	3.53787	-1.69886
22.39286	3.53787	-1.69886
22.39692	3.53787	-1.69886
22.40098	3.53787	-1.69886
22.40504	3.51590	-1.69886
22.40910	3.49393	-1.69886
22.41316	3.51590	-1.69886
22.41722	3.51590	-1.69886
22.42128	3.49393	-1.69886
22.42534	3.47196	-1.69886
22.42940	3.47196	-1.69886
22.43370	3.47196	-1.69886
22.43776	3.47196	-1.69886
22.44181	3.47196	-1.69886
22.44587	3.44998	-1.69886
22.44993	3.44998	-1.69886
22.45399	3.42801	-1.69886
22.45805	3.42801	-1.69886
22.46211	3.42801	-1.69886
22.46618	3.42801	-1.69886
22.47024	3.40604	-1.69886
22.47430	3.40604	-1.69886
22.47836	3.40604	-1.69886
22.48241	3.40604	-1.69886
22.48647	3.38407	-1.69886
22.49053	3.38407	-1.69886
22.49459	3.38407	-1.69886
22.49865	3.36209	-1.69886
22.50271	3.36209	-1.69886
22.50677	3.36209	-1.69886
22.51083	3.34012	-1.69886
22.51488	3.34012	-1.69886
22.51894	3.31815	-1.69886
22.52300	3.31815	-1.69886
22.52706	3.31815	-1.69886
22.53112	3.31815	-1.69886
22.53540	3.29618	-1.69886
22.53946	3.29618	-1.69886
22.54352	3.29618	-1.69886
22.54758	3.29618	-1.69886
22.55164	3.27420	-1.69886
22.55569	3.25223	-1.69886
22.55975	3.25223	-1.69886
22.56382	3.25223	-1.69886
22.56788	3.25223	-1.69886
22.57193	3.25223	-1.69886
22.57599	3.23026	-1.69886
22.58005	3.23026	-1.69886
22.58411	3.23026	-1.69886
22.58816	3.20828	-1.69886
22.59222	3.20828	-1.69886
22.59628	3.20828	-1.69886
22.60034	3.20828	-1.69886
22.60439	3.18631	-1.69886
22.60845	3.18631	-1.69886
22.61251	3.18631	-1.69886
22.61658	3.16434	-1.69886
22.62064	3.16434	-1.69886
22.62469	3.16434	-1.69886
22.62876	3.16434	-1.69886
22.63282	3.16434	-1.69886
22.63710	3.14237	-1.69886
22.64116	3.14237	-1.69886
22.64523	3.12039	-1.69886
22.64942	3.12039	-1.69886
22.65350	3.12039	-1.69886
22.65757	3.12039	-1.69886
22.66164	3.09842	-1.69886
22.66634	3.09842	-1.69886
22.67041	3.09842	-1.69886
22.67447	3.09842	-1.69886
22.67854	3.09842	-1.69886
22.68260	3.07645	-1.69886
22.68665	3.07645	-1.69886
22.69071	3.07645	-1.69886
22.69477	3.05448	-1.69886
22.69883	3.05448	-1.69886
22.70289	3.05448	-1.69886
22.70695	3.05448	-1.69886
22.71101	3.03250	-1.69886
22.71507	3.03250	-1.69886
22.71912	3.03250	-1.69886
22.72318	3.03250	-1.69886
22.72724	3.01053	-1.69886
22.73130	3.01053	-1.69886
22.73535	3.01053	-1.69886
22.73965	3.01053	-1.69886
22.74371	2.98856	-1.69886
22.74777	2.98856	-1.69886
22.75195	2.98856	-1.69886
22.75603	2.98856	-1.69886
22.76009	2.96659	-1.69886
22.76416	2.96659	-1.69886
22.76824	2.96659	-1.69886
22.77230	2.96659	-1.69886
22.77636	2.96659	-1.69886
22.78042	2.96659	-1.69886
22.78448	2.94461	-1.69886
22.78854	2.94461	-1.69886
22.79264	2.94461	-1.69886
22.79673	2.94461	-1.69886
22.80079	2.94461	-1.69886
22.80485	2.92264	-1.69886
22.80891	2.92264	-1.69886
22.81297	2.92264	-1.69886
22.81702	2.92264	-1.69886
22.82108	2.90067	-1.69886
22.82514	2.90067	-1.69886
22.82919	2.92264	-1.69886
22.83325	2.92264	-1.69886
22.83730	2.90067	-1.69886
22.84160	2.90067	-1.69886
22.84566	2.90067	-1.69886
22.84972	2.87869	-1.69886
22.85378	2.87869	-1.69886
22.85784	2.87869	-1.69886
22.86190	2.87869	-1.69886
22.86595	2.87869	-1.69886
22.87006	2.87869	-1.69886
22.87412	2.87869	-1.69886
22.87818	2.87869	-1.69886
22.88224	2.87869	-1.69886
22.88629	2.85672	-1.69886
22.89036	2.85672	-1.69886
22.89444	2.85672	-1.69886
22.89851	2.85672	-1.69886
22.90257	2.85672	-1.69886
22.90663	2.85672	-1.69886
22.91069	2.85672	-1.69886
22.91475	2.83475	-1.69886
22.91881	2.83475	-1.69886
22.92286	2.83475	-1.69886
22.92692	2.83475	-1.69886
22.93097	2.83475	-1.69886
22.93503	2.83475	-1.69886
22.93908	2.83475	-1.69886
22.94335	2.83475	-1.69886
22.94741	2.83475	-1.69886
22.95147	2.81278	-1.69886
22.95553	2.83475	-1.69886
22.95959	2.83475	-1.69886
22.96365	2.81278	-1.69886
22.96770	2.81278	-1.69886
22.97181	2.81278	-1.69886
22.97587	2.81278	-1.69886
22.97992	2.81278	-1.69886
22.98398	2.81278	-1.69886
22.98804	2.81278	-1.69886
22.99209	2.81278	-1.69886
22.99615	2.81278	-1.69886
23.00020	2.81278	-1.69886
23.00426	2.81278	-1.69886
23.00832	2.81278	-1.69886
23.01238	2.81278	-1.69886
23.01643	2.81278	-1.69886
23.02049	2.81278	-1.69886
23.02455	2.81278	-1.69886
23.02860	2.79080	-1.69886
23.03266	2.81278	-1.69886
23.03671	2.81278	-1.69886
23.04077	2.81278	-1.69886
23.04505	2.79080	-1.69886
23.04911	2.79080	-1.69886
23.05317	2.79080	-1.69886
23.05722	2.81278	-1.69886
23.06128	2.81278	-1.69886
23.06534	2.79080	-1.69886
23.06939	2.79080	-1.69886
23.07346	2.79080	-1.69886
23.07752	2.81278	-1.69886
23.08157	2.79080	-1.69886
23.08563	2.81278	-1.69886
23.08969	2.81278	-1.69886
23.09374	2.81278	-1.69886
23.09780	2.81278	-1.69886
23.10186	2.81278	-1.69886
23.10592	2.81278	-1.69886
23.10997	2.81278	-1.69886
23.11403	2.81278	-1.69886
23.11809	2.81278	-1.69886
23.12214	2.79080	-1.69886
23.12620	2.81278	-1.69886
23.13025	2.81278	-1.69886
23.13432	2.81278	-1.69886
23.13837	2.81278	-1.69886
23.14245	2.81278	-1.69886
23.14675	2.81278	-1.69886
23.15080	2.81278	-1.69886
23.15486	2.81278	-1.69886
23.15892	2.81278	-1.69886
23.16298	2.81278	-1.69886
23.16703	2.81278	-1.69886
23.17109	2.81278	-1.69886
23.17516	2.81278	-1.69886
23.17922	2.81278	-1.69886
23.18328	2.81278	-1.69886
23.18734	2.81278	-1.69886
23.19140	2.81278	-1.69886
23.19546	2.81278	-1.69886
23.19951	2.81278	-1.69886
23.20357	2.81278	-1.69886
23.20763	2.81278	-1.69886
23.21169	2.81278	-1.69886
23.21574	2.83475	-1.69886
23.21980	2.83475	-1.69886
23.22386	2.83475	-1.69886
23.22792	2.81278	-1.69886
23.23198	2.83475	-1.69886
23.23603	2.83475	-1.69886
23.24009	2.83475	-1.69886
23.24416	2.83475	-1.69886
23.24845	2.83475	-1.69886
23.25251	2.83475	-1.69886
23.25657	2.83475	-1.69886
23.26062	2.83475	-1.69886
23.26468	2.83475	-1.69886
23.26874	2.83475	-1.69886
23.27279	2.83475	-1.69886
23.27686	2.83475	-1.69886
23.28092	2.83475	-1.69886
23.28498	2.83475	-1.69886
23.28903	2.83475	-1.69886
23.29309	2.83475	-1.69886
23.29715	2.83475	-1.69886
23.30121	2.83475	-1.69886
23.30527	2.83475	-1.69886
23.30933	2.83475	-1.69886
23.31339	2.85672	-1.69886
23.31744	2.85672	-1.69886
23.32150	2.85672	-1.69886
23.32556	2.85672	-1.69886
23.32962	2.85672	-1.69886
23.33367	2.85672	-1.69886
23.33773	2.85672	-1.69886
23.34179	2.85672	-1.69886
23.34585	2.85672	-1.69886
23.35013	2.85672	-1.69886
23.35419	2.85672	-1.69886
23.35825	2.85672	-1.69886
23.36231	2.85672	-1.69886
23.36637	2.85672	-1.69886
23.37042	2.85672	-1.69886
23.37448	2.85672	-1.69886
23.37855	2.85672	-1.69886
23.38261	2.87869	-1.69886
23.38666	2.87869	-1.69886
23.39072	2.85672	-1.69886
23.39478	2.87869	-1.69886
23.39884	2.85672	-1.69886
23.40291	2.87869	-1.69886
23.40697	2.87869	-1.69886
23.41103	2.87869	-1.69886
23.41509	2.87869	-1.69886
23.41915	2.87869	-1.69886
23.42321	2.87869	-1.69886
23.42727	2.87869	-1.69886
23.43133	2.87869	-1.69886
23.43539	2.87869	-1.69886
23.43945	2.87869	-1.69886
23.44351	2.87869	-1.69886
23.44760	2.87869	-1.69886
23.45188	2.87869	-1.69886
23.45592	2.87869	-1.69886
23.45999	2.87869	-1.69886
23.46405	2.87869	-1.69886
23.46811	2.87869	-1.69886
23.47216	2.87869	-1.69886
23.47623	2.87869	-1.69886
23.48029	2.87869	-1.69886
23.48435	2.87869	-1.69886
23.48841	2.90067	-1.69886
23.49247	2.87869	-1.69886
23.49653	2.87869	-1.69886
23.50060	2.87869	-1.69886
23.50465	2.87869	-1.69886
23.50876	2.90067	-1.69886
23.51282	2.90067	-1.69886
23.51688	2.90067	-1.69886
23.52093	2.90067	-1.69886
23.52499	2.87869	-1.69886
23.52905	2.90067	-1.69886
23.53311	2.90067	-1.69886
23.53716	2.90067	-1.69886
23.54122	2.92264	-1.69886
23.54528	2.90067	-1.69886
23.54933	2.90067	-1.69886
23.55363	2.92264	-1.69886
23.55769	2.90067	-1.69886
23.56175	2.90067	-1.69886
23.56582	2.90067	-1.69886
23.56988	2.92264	-1.69886
23.57394	2.92264	-1.69886
23.57800	2.92264	-1.69886
23.58207	2.92264	-1.69886
23.58614	2.92264	-1.69886
23.59020	2.92264	-1.69886
23.59426	2.92264	-1.69886
23.59832	2.92264	-1.69886
23.60238	2.92264	-1.69886
23.60644	2.92264	-1.69886
23.61050	2.92264	-1.69886
23.61456	2.94461	-1.69886
23.61862	2.92264	-1.69886
23.62268	2.94461	-1.69886
23.62674	2.94461	-1.69886
23.63080	2.94461	-1.69886
23.63485	2.94461	-1.69886
23.63891	2.94461	-1.69886
23.64297	2.94461	-1.69886
23.64703	2.94461	-1.69886
23.65111	2.94461	-1.69886
23.65540	2.94461	-1.69886
23.65946	2.94461	-1.69886
23.66351	2.96659	-1.69886
23.66758	2.96659	-1.69886
23.67164	2.94461	-1.69886
23.67570	2.96659	-1.69886
23.67976	2.96659	-1.69886
23.68384	2.96659	-1.69886
23.68790	2.96659	-1.69886
23.69193	2.96659	-1.69886
23.69599	2.96659	-1.69886
23.70005	2.96659	-1.69886
23.70410	2.96659	-1.69886
23.70816	2.96659	-1.69886
23.71222	2.98856	-1.69886
23.71628	2.96659	-1.69886
23.72034	2.98856	-1.69886
23.72440	2.98856	-1.69886
23.72846	2.98856	-1.69886
23.73251	2.98856	-1.69886
23.73661	2.98856	-1.69886
23.74067	2.98856	-1.69886
23.74473	3.01053	-1.69886
23.74878	3.01053	-1.69886
23.75285	3.01053	-1.69886
23.75714	2.98856	-1.69886
23.76120	3.01053	-1.69886
23.76526	3.01053	-1.69886
23.76932	3.01053	-1.69886
23.77338	3.01053	-1.69886
23.77744	3.01053	-1.69886
23.78150	3.01053	-1.69886
23.78558	3.01053	-1.69886
23.78964	3.01053	-1.69886
23.79370	3.03250	-1.69886
23.79776	3.03250	-1.69886
23.80182	3.03250	-1.69886
23.80588	3.03250	-1.69886
23.80993	3.03250	-1.69886
23.81400	3.03250	-1.69886
23.81806	3.03250	-1.69886
23.82211	3.03250	-1.69886
23.82617	3.03250	-1.69886
23.83023	3.03250	-1.69886
23.83429	3.03250	-1.69886
23.83834	3.03250	-1.69886
23.84240	3.03250	-1.69886
23.84646	3.05448	-1.69886
23.85051	3.03250	-1.69886
23.85457	3.05448	-1.69886
23.85886	3.05448	-1.69886
23.86292	3.05448	-1.69886
23.86698	3.05448	-1.69886
23.87104	3.05448	-1.69886
23.87510	3.05448	-1.69886
23.87917	3.05448	-1.69886
23.88323	3.05448	-1.69886
23.88732	3.05448	-1.69886
23.89138	3.05448	-1.69886
23.89544	3.05448	-1.69886
23.89949	3.05448	-1.69886
23.90355	3.05448	-1.69886
23.90761	3.05448	-1.69886
23.91167	3.05448	-1.69886
23.91573	3.05448	-1.69886
23.91979	3.05448	-1.69886
23.92385	3.05448	-1.69886
23.92790	3.05448	-1.69886
23.93192	3.05448	-1.69886
23.93598	3.07645	-1.69886
23.94004	3.07645	-1.69886
23.94409	3.07645	-1.69886
23.94815	3.07645	-1.69886
23.95221	3.07645	-1.69886
23.95626	3.07645	-1.69886
23.96057	3.07645	-1.69886
23.96463	3.07645	-1.69886
23.96869	3.07645	-1.69886
23.97275	3.05448	-1.69886
23.97681	3.05448	-1.69886
23.98087	3.07645	-1.69886
23.98493	3.07645	-1.69886
23.98900	3.05448	-1.69886
23.99307	3.05448	-1.69886
23.99713	3.07645	-1.69886
24.00119	3.07645	-1.69886
24.00525	3.07645	-1.69886
24.00931	3.07645	-1.69886
24.01337	3.05448	-1.69886
24.01743	3.05448	-1.69886
24.02149	3.05448	-1.69886
24.02555	3.05448	-1.69886
24.02961	3.07645	-1.69886
24.03366	3.07645	-1.69886
24.03772	3.05448	-1.69886
24.04178	3.05448	-1.69886
24.04584	3.05448	-1.69886
24.04990	3.05448	-1.69886
24.05395	3.05448	-1.69886
24.05801	3.05448	-1.69886
24.06230	3.05448	-1.69886
24.06635	3.05448	-1.69886
24.07041	3.05448	-1.69886
24.07448	3.05448	-1.69886
24.07854	3.05448	-1.69886
24.08260	3.05448	-1.69886
24.08665	3.05448	-1.69886
24.09073	3.05448	-1.69886
24.09480	3.05448	-1.69886
24.09886	3.05448	-1.69886
24.10292	3.05448	-1.69886
24.10697	3.05448	-1.69886
24.11103	3.05448	-1.69886
24.11509	3.05448	-1.69886
24.11915	3.05448	-1.69886
24.12321	3.05448	-1.69886
24.12726	3.05448	-1.69886
24.13132	3.03250	-1.69886
24.13538	3.03250	-1.69886
24.13944	3.03250	-1.69886
24.14349	3.03250	-1.69886
24.14755	3.05448	-1.69886
24.15161	3.03250	-1.69886
24.15566	3.03250	-1.69886
24.15972	3.03250	-1.69886
24.16404	3.03250	-1.69886
24.16810	3.03250	-1.69886
24.17216	3.03250	-1.69886
24.17622	3.03250	-1.69886
24.18028	3.03250	-1.69886
24.18434	3.03250	-1.69886
24.18839	3.03250	-1.69886
24.19249	3.03250	-1.69886
24.19656	3.03250	-1.69886
24.20061	3.03250	-1.69886
24.20467	3.03250	-1.69886
24.20873	3.03250	-1.69886
24.21278	3.03250	-1.69886
24.21684	3.01053	-1.69886
24.22090	3.03250	-1.69886
24.22495	3.03250	-1.69886
24.22901	3.03250	-1.69886
24.23307	3.03250	-1.69886
24.23715	3.03250	-1.69886
24.24120	3.03250	-1.69886
24.24526	3.01053	-1.69886
24.24932	3.01053	-1.69886
24.25337	3.03250	-1.69886
24.25744	3.03250	-1.69886
24.26149	3.01053	-1.69886
24.26579	3.01053	-1.69886
24.26985	3.01053	-1.69886
24.27391	3.03250	-1.69886
24.27796	3.01053	-1.69886
24.28202	3.03250	-1.69886
24.28608	3.01053	-1.69886
24.29013	3.03250	-1.69886
24.29419	3.03250	-1.69886
24.29825	3.01053	-1.69886
24.30231	3.03250	-1.69886
24.30637	3.01053	-1.69886
24.31043	3.03250	-1.69886
24.31455	3.03250	-1.69886
24.31863	3.03250	-1.69886
24.32269	3.01053	-1.69886
24.32676	3.01053	-1.69886
24.33082	3.03250	-1.69886
24.33488	3.03250	-1.69886
24.33894	3.03250	-1.69886
24.34300	3.03250	-1.69886
24.34705	3.03250	-1.69886
24.35111	3.03250	-1.69886
24.35517	3.03250	-1.69886
24.35923	3.03250	-1.69886
24.36329	3.03250	-1.69886
24.36756	3.03250	-1.69886
24.37162	3.03250	-1.69886
24.37568	3.03250	-1.69886
24.37974	3.03250	-1.69886
24.38380	3.03250	-1.69886
24.38786	3.03250	-1.69886
24.39192	3.03250	-1.69886
24.39601	3.03250	-1.69886
24.40007	3.03250	-1.69886
24.40413	3.03250	-1.69886
24.40819	3.01053	-1.69886
24.41228	3.03250	-1.69886
24.41635	3.03250	-1.69886
24.42043	3.03250	-1.69886
24.42449	3.03250	-1.69886
24.42856	3.03250	-1.69886
24.43262	3.03250	-1.69886
24.43668	3.05448	-1.69886
24.44074	3.05448	-1.69886
24.44480	3.03250	-1.69886
24.44886	3.05448	-1.69886
24.45292	3.05448	-1.69886
24.45697	3.05448	-1.69886
24.46104	3.05448	-1.69886
24.46509	3.05448	-1.69886
24.46937	3.05448	-1.69886
24.47343	3.05448	-1.69886
24.47749	3.05448	-1.69886
24.48155	3.05448	-1.69886
24.48561	3.05448	-1.69886
24.48967	3.05448	-1.69886
24.49372	3.05448	-1.69886
24.49786	3.05448	-1.69886
24.50192	3.05448	-1.69886
24.50598	3.05448	-1.69886
24.51004	3.05448	-1.69886
24.51410	3.05448	-1.69886
24.51816	3.05448	-1.69886
24.52221	3.07645	-1.69886
24.52628	3.07645	-1.69886
24.53033	3.07645	-1.69886
24.53439	3.07645	-1.69886
24.53844	3.07645	-1.69886
24.54250	3.07645	-1.69886
24.54656	3.07645	-1.69886
24.55061	3.07645	-1.69886
24.55467	3.07645	-1.69886
24.55873	3.09842	-1.69886
24.56279	3.09842	-1.69886
24.56684	3.09842	-1.69886
24.57113	3.09842	-1.69886
24.57519	3.09842	-1.69886
24.57925	3.09842	-1.69886
24.58331	3.09842	-1.69886
24.58737	3.09842	-1.69886
24.59143	3.09842	-1.69886
24.59548	3.09842	-1.69886
24.59964	3.12039	-1.69886
24.60370	3.12039	-1.69886
24.60776	3.12039	-1.69886
24.61182	3.14237	-1.69886
24.61588	3.14237	-1.69886
24.61992	3.12039	-1.69886
24.62398	3.12039	-1.69886
24.62804	3.12039	-1.69886
24.63209	3.12039	-1.69886
24.63615	3.14237	-1.69886
24.64021	3.14237	-1.69886
24.64426	3.14237	-1.69886
24.64832	3.14237	-1.69886
24.65237	3.14237	-1.69886
24.65643	3.14237	-1.69886
24.66049	3.14237	-1.69886
24.66454	3.16434	-1.69886
24.66860	3.14237	-1.69886
24.67289	3.16434	-1.69886
24.67695	3.16434	-1.69886
24.68101	3.16434	-1.69886
24.68506	3.16434	-1.69886
24.68912	3.16434	-1.69886
24.69318	3.16434	-1.69886
24.69723	3.16434	-1.69886
24.70158	3.16434	-1.69886
24.70564	3.16434	-1.69886
24.70970	3.18631	-1.69886
24.71376	3.18631	-1.69886
24.71782	3.18631	-1.69886
24.72188	3.18631	-1.69886
24.72594	3.18631	-1.69886
24.73000	3.20828	-1.69886
24.73405	3.18631	-1.69886
24.73812	3.20828	-1.69886
24.74217	3.20828	-1.69886
24.74623	3.20828	-1.69886
24.75029	3.20828	-1.69886
24.75434	3.23026	-1.69886
24.75840	3.23026	-1.69886
24.76246	3.23026	-1.69886
24.76652	3.23026	-1.69886
24.77057	3.23026	-1.69886
24.77486	3.23026	-1.69886
24.77892	3.23026	-1.69886
24.78298	3.23026	-1.69886
24.78703	3.23026	-1.69886
24.79109	3.23026	-1.69886
24.79515	3.25223	-1.69886
24.79920	3.25223	-1.69886
24.80338	3.25223	-1.69886
24.80744	3.27420	-1.69886
24.81151	3.27420	-1.69886
24.81556	3.27420	-1.69886
24.81962	3.27420	-1.69886
24.82368	3.27420	-1.69886
24.82774	3.27420	-1.69886
24.83179	3.27420	-1.69886
24.83585	3.27420	-1.69886
24.83991	3.27420	-1.69886
24.84393	3.29618	-1.69886
24.84799	3.29618	-1.69886
24.85204	3.29618	-1.69886
24.85610	3.29618	-1.69886
24.86016	3.31815	-1.69886
24.86421	3.31815	-1.69886
24.86828	3.31815	-1.69886
24.87242	3.31815	-1.69886
24.87735	3.34012	-1.69886
24.88141	3.34012	-1.69886
24.88548	3.34012	-1.69886
24.89070	3.34012	-1.69886
24.89477	3.34012	-1.69886
24.89883	3.36209	-1.69886
24.90289	3.36209	-1.69886
24.90696	3.36209	-1.69886
24.91102	3.36209	-1.69886
24.91509	3.38407	-1.69886
24.91915	3.36209	-1.69886
24.92321	3.38407	-1.69886
24.92727	3.38407	-1.69886
24.93132	3.38407	-1.69886
24.93538	3.38407	-1.69886
24.93944	3.40604	-1.69886
24.94349	3.40604	-1.69886
24.94755	3.40604	-1.69886
24.95161	3.40604	-1.69886
24.95567	3.40604	-1.69886
24.95972	3.42801	-1.69886
24.96381	3.42801	-1.69886
24.96787	3.42801	-1.69886
24.97192	3.42801	-1.69886
24.97598	3.42801	-1.69886
24.98026	3.44998	-1.69886
24.98432	3.44998	-1.69886
24.98838	3.44998	-1.69886
24.99243	3.44998	-1.69886
24.99649	3.44998	-1.69886
25.00055	3.44998	-1.69886
25.00460	3.47196	-1.69886
25.00867	3.47196	-1.69886
25.01272	3.47196	-1.69886
25.01678	3.49393	-1.69886
25.02084	3.49393	-1.69886
25.02489	3.49393	-1.69886
25.02895	3.49393	-1.69886
25.03301	3.49393	-1.69886
25.03706	3.51590	-1.69886
25.04112	3.51590	-1.69886
25.04517	3.51590	-1.69886
25.04923	3.53787	-1.69886
25.05329	3.53787	-1.69886
25.05734	3.53787	-1.69886
25.06140	3.55985	-1.69886
25.06548	3.55985	-1.69886
25.06954	3.55985	-1.69886
25.07360	3.55985	-1.69886
25.07765	3.55985	-1.69886
25.08200	3.55985	-1.69886
25.08606	3.58182	-1.69886
25.09012	3.58182	-1.69886
25.09418	3.58182	-1.69886
25.09824	3.60379	-1.69886
25.10230	3.60379	-1.69886
25.10636	3.60379	-1.69886
25.11043	3.60379	-1.69886
25.11450	3.62577	-1.69886
25.11855	3.62577	-1.69886
25.12261	3.62577	-1.69886
25.12667	3.62577	-1.69886
25.13073	3.64774	-1.69886
25.13478	3.64774	-1.69886
25.13885	3.64774	-1.69886
25.14290	3.64774	-1.69886
25.14696	3.66971	-1.69886
25.15102	3.66971	-1.69886
25.15508	3.66971	-1.69886
25.15913	3.66971	-1.69886
25.16319	3.66971	-1.69886
25.16726	3.69168	-1.69886
25.17132	3.69168	-1.69886
25.17537	3.71366	-1.69886
25.17943	3.71366	-1.69886
25.18424	3.71366	-1.69886
25.18834	3.71366	-1.69886
25.19240	3.73563	-1.69886
25.19648	3.73563	-1.69886
25.20054	3.73563	-1.69886
25.20461	3.73563	-1.69886
25.20871	3.73563	-1.69886
25.21282	3.75760	-1.69886
25.21691	3.75760	-1.69886
25.22097	3.75760	-1.69886
25.22503	3.77957	-1.69886
25.22910	3.77957	-1.69886
25.23315	3.77957	-1.69886
25.23721	3.77957	-1.69886
25.24127	3.77957	-1.69886
25.24533	3.80155	-1.69886
25.24939	3.80155	-1.69886
25.25344	3.80155	-1.69886
25.25750	3.82352	-1.69886
25.26156	3.82352	-1.69886
25.26562	3.82352	-1.69886
25.26968	3.82352	-1.69886
25.27373	3.82352	-1.69886
25.27779	3.84549	-1.69886
25.28185	3.84549	-1.69886
25.28614	3.84549	-1.69886
25.29020	3.84549	-1.69886
25.29426	3.84549	-1.69886
25.29833	3.84549	-1.69886
25.30239	3.86746	-1.69886
25.30645	3.86746	-1.69886
25.31051	3.86746	-1.69886
25.31461	3.88944	-1.69886
25.31867	3.88944	-1.69886
25.32273	3.88944	-1.69886
25.32679	3.91141	-1.69886
25.33085	3.91141	-1.69886
25.33491	3.91141	-1.69886
25.33896	3.91141	-1.69886
25.34302	3.91141	-1.69886
25.34708	3.91141	-1.69886
25.35114	3.93338	-1.69886
25.35519	3.93338	-1.69886
25.35925	3.93338	-1.69886
25.36331	3.93338	-1.69886
25.36737	3.93338	-1.69886
25.37142	3.95536	-1.69886
25.37548	3.95536	-1.69886
25.37956	3.95536	-1.69886
25.38362	3.95536	-1.69886
25.38791	3.95536	-1.69886
25.39193	3.95536	-1.69886
25.39599	3.97733	-1.69886
25.40005	3.97733	-1.69886
25.40411	3.97733	-1.69886
25.40817	3.97733	-1.69886
25.41222	3.97733	-1.69886
25.41629	3.97733	-1.69886
25.42035	3.99930	-1.69886
25.42441	3.99930	-1.69886
25.42847	3.99930	-1.69886
25.43252	3.99930	-1.69886
25.43658	3.99930	-1.69886
25.44064	3.99930	-1.69886
25.44470	3.99930	-1.69886
25.44876	3.99930	-1.69886
25.45281	3.99930	-1.69886
25.45687	3.99930	-1.69886
25.46093	4.02127	-1.69886
25.46499	4.02127	-1.69886
25.46904	4.02127	-1.69886
25.47310	4.02127	-1.69886
25.47718	4.02127	-1.69886
25.48124	4.02127	-1.69886
25.48530	4.02127	-1.69886
25.48960	4.02127	-1.69886
25.49366	4.02127	-1.69886
25.49772	4.02127	-1.69886
25.50178	4.02127	-1.69886
25.50584	4.04325	-1.69886
25.50990	4.04325	-1.69886
25.51396	4.04325	-1.69886
25.51802	4.02127	-1.69886
25.52208	4.02127	-1.69886
25.52614	4.02127	-1.69886
25.53020	4.04325	-1.69886
25.53425	4.04325	-1.69886
25.53831	4.02127	-1.69886
25.54237	4.02127	-1.69886
25.54642	4.02127	-1.69886
25.55048	4.02127	-1.69886
25.55455	4.02127	-1.69886
25.55860	4.02127	-1.69886
25.56266	4.02127	-1.69886
25.56672	4.02127	-1.69886
25.57078	4.02127	-1.69886
25.57484	4.02127	-1.69886
25.57890	4.02127	-1.69886
25.58296	4.02127	-1.69886
25.58702	4.02127	-1.69886
25.59131	4.02127	-1.69886
25.59537	4.02127	-1.69886
25.59943	4.02127	-1.69886
25.60349	4.02127	-1.69886
25.60754	4.02127	-1.69886
25.61160	4.02127	-1.69886
25.61566	3.99930	-1.69886
25.61973	3.99930	-1.69886
25.62379	3.99930	-1.69886
25.62785	3.99930	-1.69886
25.63191	3.99930	-1.69886
25.63592	3.99930	-1.69886
25.63998	3.99930	-1.69886
25.64404	3.99930	-1.69886
25.64810	3.97733	-1.69886
25.65215	3.97733	-1.69886
25.65621	3.97733	-1.69886
25.66027	3.97733	-1.69886
25.66432	3.97733	-1.69886
25.66838	3.97733	-1.69886
25.67244	3.97733	-1.69886
25.67650	3.95536	-1.69886
25.68055	3.95536	-1.69886
25.68461	3.95536	-1.69886
25.68867	3.95536	-1.69886
25.69296	3.95536	-1.69886
25.69702	3.93338	-1.69886
25.70108	3.93338	-1.69886
25.70514	3.93338	-1.69886
25.70919	3.93338	-1.69886
25.71325	3.91141	-1.69886
25.71731	3.91141	-1.69886
25.72137	3.91141	-1.69886
25.72543	3.91141	-1.69886
25.72949	3.91141	-1.69886
25.73355	3.88944	-1.69886
25.73760	3.88944	-1.69886
25.74166	3.88944	-1.69886
25.74572	3.88944	-1.69886
25.74977	3.88944	-1.69886
25.75383	3.86746	-1.69886
25.75789	3.84549	-1.69886
25.76195	3.86746	-1.69886
25.76602	3.86746	-1.69886
25.77008	3.84549	-1.69886
25.77414	3.84549	-1.69886
25.77820	3.84549	-1.69886
25.78226	3.82352	-1.69886
25.78631	3.82352	-1.69886
25.79037	3.82352	-1.69886
25.79468	3.80155	-1.69886
25.79874	3.80155	-1.69886
25.80280	3.80155	-1.69886
25.80686	3.77957	-1.69886
25.81092	3.77957	-1.69886
25.81497	3.77957	-1.69886
25.81903	3.77957	-1.69886
25.82310	3.75760	-1.69886
25.82716	3.75760	-1.69886
25.83121	3.73563	-1.69886
25.83527	3.73563	-1.69886
25.83933	3.73563	-1.69886
25.84338	3.73563	-1.69886
25.84744	3.71366	-1.69886
25.85150	3.71366	-1.69886
25.85555	3.71366	-1.69886
25.85961	3.71366	-1.69886
25.86367	3.69168	-1.69886
25.86773	3.69168	-1.69886
25.87179	3.66971	-1.69886
25.87584	3.66971	-1.69886
25.87990	3.66971	-1.69886
25.88393	3.66971	-1.69886
25.88798	3.66971	-1.69886
25.89204	3.64774	-1.69886
25.89634	3.64774	-1.69886
25.90040	3.64774	-1.69886
25.90446	3.62577	-1.69886
25.90851	3.62577	-1.69886
25.91257	3.60379	-1.69886
25.91663	3.60379	-1.69886
25.92069	3.60379	-1.69886
25.92475	3.58182	-1.69886
25.92881	3.58182	-1.69886
25.93286	3.58182	-1.69886
25.93692	3.55985	-1.69886
25.94098	3.55985	-1.69886
25.94503	3.55985	-1.69886
25.94909	3.53787	-1.69886
25.95315	3.53787	-1.69886
25.95721	3.51590	-1.69886
25.96126	3.51590	-1.69886
25.96532	3.51590	-1.69886
25.96938	3.51590	-1.69886
25.97343	3.49393	-1.69886
25.97749	3.49393	-1.69886
25.98156	3.49393	-1.69886
25.98561	3.47196	-1.69886
25.98968	3.47196	-1.69886
25.99374	3.44998	-1.69886
25.99803	3.44998	-1.69886
26.00208	3.44998	-1.69886
26.00614	3.44998	-1.69886
26.01020	3.42801	-1.69886
26.01426	3.40604	-1.69886
26.01831	3.40604	-1.69886
26.02237	3.40604	-1.69886
26.02644	3.40604	-1.69886
26.03049	3.38407	-1.69886
26.03455	3.38407	-1.69886
26.03862	3.38407	-1.69886
26.04268	3.36209	-1.69886
26.04674	3.36209	-1.69886
26.05079	3.36209	-1.69886
26.05485	3.34012	-1.69886
26.05891	3.34012	-1.69886
26.06297	3.31815	-1.69886
26.06703	3.31815	-1.69886
26.07109	3.31815	-1.69886
26.07515	3.29618	-1.69886
26.07921	3.29618	-1.69886
26.08327	3.29618	-1.69886
26.08734	3.27420	-1.69886
26.09145	3.27420	-1.69886
26.09552	3.27420	-1.69886
26.09990	3.27420	-1.69886
26.10394	3.25223	-1.69886
26.10801	3.25223	-1.69886
26.11206	3.23026	-1.69886
26.11612	3.23026	-1.69886
26.12018	3.23026	-1.69886
26.12424	3.20828	-1.69886
26.12830	3.20828	-1.69886
26.13236	3.18631	-1.69886
26.13642	3.18631	-1.69886
26.14048	3.18631	-1.69886
26.14453	3.16434	-1.69886
26.14859	3.16434	-1.69886
26.15265	3.16434	-1.69886
26.15670	3.16434	-1.69886
26.16076	3.16434	-1.69886
26.16482	3.14237	-1.69886
26.16888	3.14237	-1.69886
26.17299	3.12039	-1.69886
26.17711	3.12039	-1.69886
26.18117	3.12039	-1.69886
26.18524	3.12039	-1.69886
26.18930	3.09842	-1.69886
26.19336	3.07645	-1.69886
26.19742	3.07645	-1.69886
26.20168	3.07645	-1.69886
26.20574	3.07645	-1.69886
26.20980	3.05448	-1.69886
26.21385	3.05448	-1.69886
26.21791	3.05448	-1.69886
26.22196	3.05448	-1.69886
26.22602	3.03250	-1.69886
26.23009	3.03250	-1.69886
26.23414	3.01053	-1.69886
26.23820	3.01053	-1.69886
26.24226	3.01053	-1.69886
26.24632	3.01053	-1.69886
26.25038	2.98856	-1.69886
26.25443	2.98856	-1.69886
26.25849	2.96659	-1.69886
26.26255	2.96659	-1.69886
26.26661	2.96659	-1.69886
26.27066	2.96659	-1.69886
26.27472	2.94461	-1.69886
26.27878	2.94461	-1.69886
26.28283	2.94461	-1.69886
26.28691	2.94461	-1.69886
26.29097	2.92264	-1.69886
26.29503	2.92264	-1.69886
26.29909	2.90067	-1.69886
26.30338	2.90067	-1.69886
26.30744	2.90067	-1.69886
26.31150	2.90067	-1.69886
26.31556	2.87869	-1.69886
26.31961	2.87869	-1.69886
26.32367	2.87869	-1.69886
26.32773	2.85672	-1.69886
26.33180	2.85672	-1.69886
26.33586	2.85672	-1.69886
26.33992	2.83475	-1.69886
26.34398	2.81278	-1.69886
26.34803	2.81278	-1.69886
26.35209	2.83475	-1.69886
26.35615	2.81278	-1.69886
26.36020	2.81278	-1.69886
26.36426	2.79080	-1.69886
26.36832	2.79080	-1.69886
26.37237	2.79080	-1.69886
26.37643	2.76883	-1.69886
26.38049	2.76883	-1.69886
26.38455	2.76883	-1.69886
26.38861	2.74686	-1.69886
26.39267	2.74686	-1.69886
26.39673	2.74686	-1.69886
26.40078	2.74686	-1.69886
26.40508	2.72489	-1.69886
26.40914	2.72489	-1.69886
26.41320	2.70291	-1.69886
26.41726	2.70291	-1.69886
26.42131	2.70291	-1.69886
26.42537	2.70291	-1.69886
26.42943	2.68094	-1.69886
26.43350	2.68094	-1.69886
26.43756	2.68094	-1.69886
26.44162	2.65897	-1.69886
26.44568	2.65897	-1.69886
26.44974	2.65897	-1.69886
26.45380	2.63700	-1.69886
26.45785	2.63700	-1.69886
26.46191	2.63700	-1.69886
26.46597	2.61502	-1.69886
26.47002	2.61502	-1.69886
26.47408	2.61502	-1.69886
26.47814	2.59305	-1.69886
26.48219	2.59305	-1.69886
26.48625	2.57108	-1.69886
26.49031	2.57108	-1.69886
26.49436	2.57108	-1.69886
26.49842	2.54911	-1.69886
26.50248	2.54911	-1.69886
26.50676	2.54911	-1.69886
26.51082	2.52713	-1.69886
26.51488	2.52713	-1.69886
26.51894	2.52713	-1.69886
26.52299	2.50516	-1.69886
26.52705	2.50516	-1.69886
26.53111	2.50516	-1.69886
26.53517	2.48319	-1.69886
26.53923	2.48319	-1.69886
26.54328	2.48319	-1.69886
26.54734	2.46121	-1.69886
26.55140	2.46121	-1.69886
26.55545	2.46121	-1.69886
26.55951	2.43924	-1.69886
26.56357	2.43924	-1.69886
26.56763	2.43924	-1.69886
26.57168	2.41727	-1.69886
26.57574	2.41727	-1.69886
26.57979	2.39530	-1.69886
26.58385	2.39530	-1.69886
26.58791	2.39530	-1.69886
26.59192	2.39530	-1.69886
26.59598	2.37332	-1.69886
26.60004	2.37332	-1.69886
26.60410	2.37332	-1.69886
26.60840	2.37332	-1.69886
26.61245	2.35135	-1.69886
26.61651	2.35135	-1.69886
26.62058	2.35135	-1.69886
26.62463	2.32938	-1.69886
26.62869	2.32938	-1.69886
26.63275	2.32938	-1.69886
26.63682	2.30741	-1.69886
26.64088	2.30741	-1.69886
26.64494	2.30741	-1.69886
26.64899	2.30741	-1.69886
26.65305	2.28543	-1.69886
26.65711	2.28543	-1.69886
26.66117	2.26346	-1.69886
26.66522	2.26346	-1.69886
26.66928	2.26346	-1.69886
26.67334	2.26346	-1.69886
26.67740	2.26346	-1.69886
26.68146	2.26346	-1.69886
26.68551	2.24149	-1.69886
26.68958	2.21952	-1.69886
26.69363	2.21952	-1.69886
26.69769	2.21952	-1.69886
26.70175	2.21952	-1.69886
26.70580	2.21952	-1.69886
26.71010	2.19754	-1.69886
26.71416	2.19754	-1.69886
26.71821	2.19754	-1.69886
26.72227	2.19754	-1.69886
26.72633	2.19754	-1.69886
26.73038	2.17557	-1.69886
26.73444	2.17557	-1.69886
26.73851	2.17557	-1.69886
26.74257	2.17557	-1.69886
26.74663	2.17557	-1.69886
26.75068	2.17557	-1.69886
26.75474	2.15360	-1.69886
26.75880	2.15360	-1.69886
26.76285	2.15360	-1.69886
26.76691	2.15360	-1.69886
26.77097	2.15360	-1.69886
26.77502	2.15360	-1.69886
26.77908	2.15360	-1.69886
26.78314	2.13162	-1.69886
26.78719	2.13162	-1.69886
26.79126	2.13162	-1.69886
26.79531	2.13162	-1.69886
26.79937	2.13162	-1.69886
26.80343	2.10965	-1.69886
26.80748	2.10965	-1.69886
26.81181	2.10965	-1.69886
26.81589	2.10965	-1.69886
26.81993	2.10965	-1.69886
26.82399	2.08768	-1.69886
26.82805	2.08768	-1.69886
26.83211	2.08768	-1.69886
26.83617	2.08768	-1.69886
26.84025	2.08768	-1.69886
26.84431	2.08768	-1.69886
26.84837	2.08768	-1.69886
26.85243	2.08768	-1.69886
26.85649	2.08768	-1.69886
26.86055	2.08768	-1.69886
26.86464	2.08768	-1.69886
26.86902	2.08768	-1.69886
26.87313	2.08768	-1.69886
26.87720	2.08768	-1.69886
26.88128	2.08768	-1.69886
26.88537	2.08768	-1.69886
26.88943	2.08768	-1.69886
26.89349	2.06571	-1.69886
26.89757	2.08768	-1.69886
26.90164	2.08768	-1.69886
26.90569	2.08768	-1.69886
26.90975	2.08768	-1.69886
26.91398	2.08768	-1.69886
26.91804	2.06571	-1.69886
26.92209	2.08768	-1.69886
26.92616	2.08768	-1.69886
26.93022	2.08768	-1.69886
26.93427	2.08768	-1.69886
26.93833	2.08768	-1.69886
26.94240	2.06571	-1.69886
26.94647	2.08768	-1.69886
26.95052	2.08768	-1.69886
26.95458	2.08768	-1.69886
26.95864	2.08768	-1.69886
26.96270	2.08768	-1.69886
26.96675	2.08768	-1.69886
26.97081	2.08768	-1.69886
26.97487	2.08768	-1.69886
26.97893	2.10965	-1.69886
26.98299	2.10965	-1.69886
26.98704	2.10965	-1.69886
26.99110	2.10965	-1.69886
26.99516	2.10965	-1.69886
26.99921	2.10965	-1.69886
27.00327	2.10965	-1.69886
27.00732	2.13162	-1.69886
27.01139	2.13162	-1.69886
27.01562	2.13162	-1.69886
27.01968	2.15360	-1.69886
27.02373	2.15360	-1.69886
27.02780	2.15360	-1.69886
27.03185	2.17557	-1.69886
27.03591	2.17557	-1.69886
27.03992	2.17557	-1.69886
27.04400	2.17557	-1.69886
27.04806	2.19754	-1.69886
27.05211	2.19754	-1.69886
27.05617	2.19754	-1.69886
27.06023	2.19754	-1.69886
27.06429	2.21952	-1.69886
27.06834	2.21952	-1.69886
27.07240	2.21952	-1.69886
27.07646	2.24149	-1.69886
27.08051	2.24149	-1.69886
27.08457	2.24149	-1.69886
27.08862	2.26346	-1.69886
27.09269	2.26346	-1.69886
27.09682	2.28543	-1.69886
27.10089	2.28543	-1.69886
27.10494	2.28543	-1.69886
27.10901	2.30741	-1.69886
27.11307	2.30741	-1.69886
27.11731	2.32938	-1.69886
27.12137	2.32938	-1.69886
27.12543	2.32938	-1.69886
27.12949	2.35135	-1.69886
27.13354	2.37332	-1.69886
27.13760	2.37332	-1.69886
27.14166	2.37332	-1.69886
27.14573	2.37332	-1.69886
27.14979	2.39530	-1.69886
27.15385	2.41727	-1.69886
27.15791	2.43924	-1.69886
27.16196	2.43924	-1.69886
27.16602	2.43924	-1.69886
27.17008	2.46121	-1.69886
27.17414	2.46121	-1.69886
27.17819	2.48319	-1.69886
27.18225	2.50516	-1.69886
27.18630	2.50516	-1.69886
27.19036	2.50516	-1.69886
27.19442	2.52713	-1.69886
27.19847	2.54911	-1.69886
27.20253	2.57108	-1.69886
27.20658	2.57108	-1.69886
27.21067	2.57108	-1.69886
27.21475	2.59305	-1.69886
27.21910	2.61502	-1.69886
27.22316	2.61502	-1.69886
27.22722	2.63700	-1.69886
27.23128	2.63700	-1.69886
27.23534	2.65897	-1.69886
27.23940	2.68094	-1.69886
27.24345	2.70291	-1.69886
27.24752	2.70291	-1.69886
27.25159	2.70291	-1.69886
27.25564	2.72489	-1.69886
27.25971	2.74686	-1.69886
27.26376	2.76883	-1.69886
27.26782	2.76883	-1.69886
27.27188	2.76883	-1.69886
27.27593	2.79080	-1.69886
27.27999	2.81278	-1.69886
27.28404	2.83475	-1.69886
27.28810	2.85672	-1.69886
27.29216	2.85672	-1.69886
27.29621	2.85672	-1.69886
27.30027	2.87869	-1.69886
27.30433	2.90067	-1.69886
27.30838	2.92264	-1.69886
27.31244	2.92264	-1.69886
27.31650	2.92264	-1.69886
27.32073	2.96659	-1.69886
27.32479	2.96659	-1.69886
27.32885	2.98856	-1.69886
27.33291	3.01053	-1.69886
27.33697	3.01053	-1.69886
27.34102	3.03250	-1.69886
27.34508	3.05448	-1.69886
27.34915	3.07645	-1.69886
27.35321	3.07645	-1.69886
27.35727	3.09842	-1.69886
27.36133	3.09842	-1.69886
27.36539	3.12039	-1.69886
27.36945	3.14237	-1.69886
27.37350	3.16434	-1.69886
27.37756	3.18631	-1.69886
27.38161	3.18631	-1.69886
27.38567	3.18631	-1.69886
27.38972	3.23026	-1.69886
27.39378	3.20828	-1.69886
27.39784	3.25223	-1.69886
27.40189	3.25223	-1.69886
27.40595	3.27420	-1.69886
27.41001	3.29618	-1.69886
27.41406	3.31815	-1.69886
27.41812	3.31815	-1.69886
27.42236	3.31815	-1.69886
27.42642	3.34012	-1.69886
27.43048	3.38407	-1.69886
27.43454	3.38407	-1.69886
27.43859	3.40604	-1.69886
27.44266	3.42801	-1.69886
27.44671	3.42801	-1.69886
27.45078	3.42801	-1.69886
27.45484	3.47196	-1.69886
27.45891	3.47196	-1.69886
27.46297	3.49393	-1.69886
27.46702	3.49393	-1.69886
27.47108	3.51590	-1.69886
27.47514	3.53787	-1.69886
27.47920	3.55985	-1.69886
27.48326	3.58182	-1.69886
27.48731	3.58182	-1.69886
27.49138	3.60379	-1.69886
27.49543	3.62577	-1.69886
27.49949	3.62577	-1.69886
27.50354	3.64774	-1.69886
27.50760	3.64774	-1.69886
27.51166	3.66971	-1.69886
27.51571	3.69168	-1.69886
27.51976	3.71366	-1.69886
27.52402	3.71366	-1.69886
27.52808	3.73563	-1.69886
27.53214	3.73563	-1.69886
27.53619	3.75760	-1.69886
27.54025	3.77957	-1.69886
27.54431	3.77957	-1.69886
27.54837	3.77957	-1.69886
27.55243	3.80155	-1.69886
27.55648	3.82352	-1.69886
27.56054	3.84549	-1.69886
27.56460	3.86746	-1.69886
27.56865	3.88944	-1.69886
27.57271	3.88944	-1.69886
27.57677	3.88944	-1.69886
27.58083	3.91141	-1.69886
27.58488	3.93338	-1.69886
27.58893	3.95536	-1.69886
27.59299	3.95536	-1.69886
27.59705	3.97733	-1.69886
27.60110	3.99930	-1.69886
27.60516	3.99930	-1.69886
27.60922	4.02127	-1.69886
27.61328	4.02127	-1.69886
27.61733	4.02127	-1.69886
27.62138	4.06522	-1.69886
27.62563	4.06522	-1.69886
27.62968	4.08719	-1.69886
27.63374	4.10916	-1.69886
27.63780	4.10916	-1.69886
27.64185	4.13114	-1.69886
27.64591	4.13114	-1.69886
27.64997	4.15311	-1.69886
27.65403	4.17508	-1.69886
27.65809	4.17508	-1.69886
27.66214	4.17508	-1.69886
27.66620	4.19705	-1.69886
27.67025	4.21903	-1.69886
27.67431	4.24100	-1.69886
27.67837	4.24100	-1.69886
27.68243	4.26297	-1.69886
27.68648	4.26297	-1.69886
27.69054	4.28494	-1.69886
27.69460	4.28494	-1.69886
27.69865	4.30692	-1.69886
27.70271	4.30692	-1.69886
27.70676	4.32889	-1.69886
27.71082	4.35086	-1.69886
27.71488	4.35086	-1.69886
27.71894	4.37284	-1.69886
27.72299	4.37284	-1.69886
27.72724	4.39481	-1.69886
27.73130	4.39481	-1.69886
27.73535	4.41678	-1.69886
27.73941	4.43875	-1.69886
27.74347	4.43875	-1.69886
27.74752	4.46073	-1.69886
27.75158	4.46073	-1.69886
27.75564	4.48270	-1.69886
27.75970	4.48270	-1.69886
27.76376	4.48270	-1.69886
27.76781	4.50467	-1.69886
27.77187	4.52664	-1.69886
27.77593	4.52664	-1.69886
27.77998	4.54862	-1.69886
27.78404	4.54862	-1.69886
27.78809	4.54862	-1.69886
27.79216	4.57059	-1.69886
27.79621	4.59256	-1.69886
27.80027	4.59256	-1.69886
27.80432	4.59256	-1.69886
27.80838	4.61453	-1.69886
27.81244	4.63651	-1.69886
27.81649	4.63651	-1.69886
27.82055	4.65848	-1.69886
27.82461	4.65848	-1.69886
27.82884	4.65848	-1.69886
27.83290	4.68045	-1.69886
27.83695	4.70243	-1.69886
27.84101	4.70243	-1.69886
27.84507	4.72440	-1.69886
27.84912	4.72440	-1.69886
27.85318	4.72440	-1.69886
27.85724	4.74637	-1.69886
27.86130	4.74637	-1.69886
27.86536	4.76834	-1.69886
27.86941	4.76834	-1.69886
27.87347	4.76834	-1.69886
27.87753	4.79032	-1.69886
27.88158	4.79032	-1.69886
27.88564	4.81229	-1.69886
27.88969	4.81229	-1.69886
27.89376	4.81229	-1.69886
27.89781	4.83426	-1.69886
27.90187	4.83426	-1.69886
27.90592	4.85623	-1.69886
27.90998	4.85623	-1.69886
27.91404	4.85623	-1.69886
27.91809	4.85623	-1.69886
27.92214	4.87821	-1.69886
27.92621	4.90018	-1.69886
27.93043	4.90018	-1.69886
27.93449	4.90018	-1.69886
27.93854	4.90018	-1.69886
27.94260	4.92215	-1.69886
27.94666	4.92215	-1.69886
27.95072	4.94412	-1.69886
27.95478	4.92215	-1.69886
27.95887	4.92215	-1.69886
27.96293	4.94412	-1.69886
27.96698	4.96610	-1.69886
27.97104	4.96610	-1.69886
27.97510	4.96610	-1.69886
27.97915	4.96610	-1.69886
27.98321	4.98807	-1.69886
27.98726	4.98807	-1.69886
27.99132	5.01004	-1.69886
27.99537	5.01004	-1.69886
27.99943	5.01004	-1.69886
28.00348	5.01004	-1.69886
28.00754	5.01004	-1.69886
28.01160	5.03202	-1.69886
28.01565	5.03202	-1.69886
28.01970	5.03202	-1.69886
28.02376	5.03202	-1.69886
28.02782	5.03202	-1.69886
28.03205	5.05399	-1.69886
28.03612	5.05399	-1.69886
28.04018	5.05399	-1.69886
28.04426	5.05399	-1.69886
28.04832	5.07596	-1.69886
28.05238	5.07596	-1.69886
28.05644	5.07596	-1.69886
28.06055	5.07596	-1.69886
28.06462	5.07596	-1.69886
28.06868	5.07596	-1.69886
28.07275	5.09793	-1.69886
28.07684	5.07596	-1.69886
28.08090	5.09793	-1.69886
28.08498	5.09793	-1.69886
28.08905	5.09793	-1.69886
28.09313	5.09793	-1.69886
28.09719	5.09793	-1.69886
28.10125	5.09793	-1.69886
28.10531	5.09793	-1.69886
28.10938	5.09793	-1.69886
28.11346	5.09793	-1.69886
28.11752	5.11991	-1.69886
28.12158	5.11991	-1.69886
28.12566	5.11991	-1.69886
28.12972	5.11991	-1.69886
28.13395	5.11991	-1.69886
28.13801	5.11991	-1.69886
28.14208	5.11991	-1.69886
28.14614	5.11991	-1.69886
28.15020	5.11991	-1.69886
28.15425	5.11991	-1.69886
28.15832	5.09793	-1.69886
28.16240	5.09793	-1.69886
28.16646	5.11991	-1.69886
28.17054	5.11991	-1.69886
28.17462	5.11991	-1.69886
28.17873	5.11991	-1.69886
28.18279	5.11991	-1.69886
28.18685	5.09793	-1.69886
28.19091	5.11991	-1.69886
28.19497	5.11991	-1.69886
28.19903	5.11991	-1.69886
28.20309	5.09793	-1.69886
28.20714	5.09793	-1.69886
28.21121	5.09793	-1.69886
28.21528	5.09793	-1.69886
28.21933	5.09793	-1.69886
28.22340	5.09793	-1.69886
28.22747	5.09793	-1.69886
28.23153	5.07596	-1.69886
28.23576	5.07596	-1.69886
28.23981	5.07596	-1.69886
28.24395	5.07596	-1.69886
28.24802	5.07596	-1.69886
28.25208	5.05399	-1.69886
28.25613	5.05399	-1.69886
28.26029	5.05399	-1.69886
28.26441	5.05399	-1.69886
28.26848	5.03202	-1.69886
28.27254	5.03202	-1.69886
28.27884	5.03202	-1.69886
28.28291	5.01004	-1.69886
28.28697	5.01004	-1.69886
28.29180	5.01004	-1.69886
28.29587	5.01004	-1.69886
28.29993	4.98807	-1.69886
28.30398	4.98807	-1.69886
28.30847	4.96610	-1.69886
28.31257	4.96610	-1.69886
28.31665	4.96610	-1.69886
28.32071	4.96610	-1.69886
28.32523	4.94412	-1.69886
28.32930	4.94412	-1.69886
28.33336	4.92215	-1.69886
28.33741	4.92215	-1.69886
28.34199	4.90018	-1.69886
28.34605	4.90018	-1.69886
28.35011	4.90018	-1.69886
28.35429	4.87821	-1.69886
28.35850	4.87821	-1.69886
28.36260	4.87821	-1.69886
28.36666	4.85623	-1.69886
28.37202	4.83426	-1.69886
28.37610	4.83426	-1.69886
28.38017	4.83426	-1.69886
28.38424	4.81229	-1.69886
28.38831	4.79032	-1.69886
28.39239	4.79032	-1.69886
28.39645	4.76834	-1.69886
28.40051	4.76834	-1.69886
28.40456	4.74637	-1.69886
28.40863	4.72440	-1.69886
28.41269	4.72440	-1.69886
28.41674	4.70243	-1.69886
28.42080	4.70243	-1.69886
28.42486	4.70243	-1.69886
28.42892	4.68045	-1.69886
28.43298	4.65848	-1.69886
28.43703	4.65848	-1.69886
28.44109	4.65848	-1.69886
28.44533	4.63651	-1.69886
28.44939	4.61453	-1.69886
28.45345	4.61453	-1.69886
28.45750	4.59256	-1.69886
28.46156	4.57059	-1.69886
28.46562	4.57059	-1.69886
28.46967	4.54862	-1.69886
28.47373	4.52664	-1.69886
28.47779	4.52664	-1.69886
28.48187	4.50467	-1.69886
28.48592	4.50467	-1.69886
28.48998	4.48270	-1.69886
28.49404	4.46073	-1.69886
28.49809	4.46073	-1.69886
28.50215	4.43875	-1.69886
28.50620	4.43875	-1.69886
28.51026	4.41678	-1.69886
28.51431	4.39481	-1.69886
28.51837	4.37284	-1.69886
28.52242	4.37284	-1.69886
28.52648	4.37284	-1.69886
28.53053	4.35086	-1.69886
28.53459	4.32889	-1.69886
28.53864	4.30692	-1.69886
28.54270	4.30692	-1.69886
28.54693	4.30692	-1.69886
28.55098	4.28494	-1.69886
28.55504	4.26297	-1.69886
28.55910	4.24100	-1.69886
28.56315	4.21903	-1.69886
28.56721	4.21903	-1.69886
28.57126	4.21903	-1.69886
28.57532	4.19705	-1.69886
28.57938	4.17508	-1.69886
28.58343	4.15311	-1.69886
28.58749	4.15311	-1.69886
28.59154	4.15311	-1.69886
28.59560	4.13114	-1.69886
28.59965	4.10916	-1.69886
28.60371	4.08719	-1.69886
28.60776	4.06522	-1.69886
28.61181	4.06522	-1.69886
28.61587	4.06522	-1.69886
28.61992	4.04325	-1.69886
28.62397	4.02127	-1.69886
28.62803	3.99930	-1.69886
28.63208	3.97733	-1.69886
28.63614	3.97733	-1.69886
28.64019	3.97733	-1.69886
28.64425	3.95536	-1.69886
28.64849	3.93338	-1.69886
28.65255	3.91141	-1.69886
28.65660	3.91141	-1.69886
28.66066	3.88944	-1.69886
28.66471	3.88944	-1.69886
28.66877	3.86746	-1.69886
28.67282	3.84549	-1.69886
28.67688	3.84549	-1.69886
28.68094	3.82352	-1.69886
28.68499	3.80155	-1.69886
28.68904	3.80155	-1.69886
28.69310	3.77957	-1.69886
28.69715	3.77957	-1.69886
28.70121	3.75760	-1.69886
28.70526	3.75760	-1.69886
28.70932	3.71366	-1.69886
28.71337	3.71366	-1.69886
28.71743	3.69168	-1.69886
28.72148	3.69168	-1.69886
28.72553	3.66971	-1.69886
28.72959	3.66971	-1.69886
28.73364	3.64774	-1.69886
28.73770	3.62577	-1.69886
28.74175	3.62577	-1.69886
28.74581	3.60379	-1.69886
28.75004	3.58182	-1.69886
28.75410	3.58182	-1.69886
28.75815	3.55985	-1.69886
28.76221	3.55985	-1.69886
28.76626	3.53787	-1.69886
28.77031	3.51590	-1.69886
28.77437	3.51590	-1.69886
28.77843	3.49393	-1.69886
28.78248	3.49393	-1.69886
28.78654	3.47196	-1.69886
28.79059	3.47196	-1.69886
28.79465	3.44998	-1.69886
28.79870	3.44998	-1.69886
28.80276	3.42801	-1.69886
28.80681	3.42801	-1.69886
28.81087	3.40604	-1.69886
28.81492	3.38407	-1.69886
28.81897	3.36209	-1.69886
28.82303	3.36209	-1.69886
28.82708	3.34012	-1.69886
28.83114	3.34012	-1.69886
28.83519	3.31815	-1.69886
28.83925	3.29618	-1.69886
28.84330	3.29618	-1.69886
28.84735	3.29618	-1.69886
28.85158	3.27420	-1.69886
28.85564	3.25223	-1.69886
28.85969	3.25223	-1.69886
28.86375	3.23026	-1.69886
28.86780	3.23026	-1.69886
28.87186	3.20828	-1.69886
28.87591	3.20828	-1.69886
28.87993	3.18631	-1.69886
28.88399	3.16434	-1.69886
28.88804	3.16434	-1.69886
28.89209	3.16434	-1.69886
28.89615	3.14237	-1.69886
28.90020	3.14237	-1.69886
28.90426	3.12039	-1.69886
28.90831	3.12039	-1.69886
28.91237	3.09842	-1.69886
28.91642	3.09842	-1.69886
28.92048	3.05448	-1.69886
28.92453	3.05448	-1.69886
28.92859	3.03250	-1.69886
28.93265	3.03250	-1.69886
28.93670	3.03250	-1.69886
28.94076	3.01053	-1.69886
28.94481	3.01053	-1.69886
28.94887	2.98856	-1.69886
28.95309	2.98856	-1.69886
28.95715	2.96659	-1.69886
28.96121	2.96659	-1.69886
28.96526	2.94461	-1.69886
28.96932	2.94461	-1.69886
28.97337	2.92264	-1.69886
28.97743	2.92264	-1.69886
28.98149	2.90067	-1.69886
28.98554	2.90067	-1.69886
28.98960	2.87869	-1.69886
28.99365	2.87869	-1.69886
28.99771	2.87869	-1.69886
29.00176	2.85672	-1.69886
29.00582	2.83475	-1.69886
29.00988	2.83475	-1.69886
29.01393	2.83475	-1.69886
29.01799	2.81278	-1.69886
29.02204	2.81278	-1.69886
29.02610	2.79080	-1.69886
29.03015	2.76883	-1.69886
29.03421	2.76883	-1.69886
29.03826	2.76883	-1.69886
29.04232	2.74686	-1.69886
29.04637	2.74686	-1.69886
29.05043	2.72489	-1.69886
29.05465	2.72489	-1.69886
29.05871	2.70291	-1.69886
29.06276	2.70291	-1.69886
29.06682	2.68094	-1.69886
29.07087	2.68094	-1.69886
29.07493	2.65897	-1.69886
29.07899	2.65897	-1.69886
29.08305	2.65897	-1.69886
29.08711	2.63700	-1.69886
29.09117	2.61502	-1.69886
29.09522	2.61502	-1.69886
29.09928	2.61502	-1.69886
29.10333	2.61502	-1.69886
29.10739	2.59305	-1.69886
29.11144	2.57108	-1.69886
29.11550	2.57108	-1.69886
29.11955	2.54911	-1.69886
29.12361	2.54911	-1.69886
29.12767	2.54911	-1.69886
29.13172	2.52713	-1.69886
29.13578	2.52713	-1.69886
29.13983	2.52713	-1.69886
29.14389	2.52713	-1.69886
29.14792	2.50516	-1.69886
29.15197	2.50516	-1.69886
29.15620	2.48319	-1.69886
29.16026	2.48319	-1.69886
29.16431	2.48319	-1.69886
29.16837	2.46121	-1.69886
29.17242	2.46121	-1.69886
29.17648	2.43924	-1.69886
29.18054	2.43924	-1.69886
29.18460	2.41727	-1.69886
29.18866	2.41727	-1.69886
29.19272	2.41727	-1.69886
29.19677	2.41727	-1.69886
29.20083	2.39530	-1.69886
29.20488	2.39530	-1.69886
29.20894	2.39530	-1.69886
29.21300	2.37332	-1.69886
29.21705	2.37332	-1.69886
29.22111	2.37332	-1.69886
29.22516	2.35135	-1.69886
29.22922	2.35135	-1.69886
29.23327	2.35135	-1.69886
29.23733	2.32938	-1.69886
29.24139	2.32938	-1.69886
29.24544	2.32938	-1.69886
29.24950	2.32938	-1.69886
29.25355	2.32938	-1.69886
29.25779	2.30741	-1.69886
29.26184	2.30741	-1.69886
29.26591	2.30741	-1.69886
29.26996	2.30741	-1.69886
29.27402	2.30741	-1.69886
29.27807	2.28543	-1.69886
29.28213	2.28543	-1.69886
29.28619	2.28543	-1.69886
29.29025	2.28543	-1.69886
29.29431	2.26346	-1.69886
29.29837	2.26346	-1.69886
29.30242	2.26346	-1.69886
29.30648	2.24149	-1.69886
29.31053	2.24149	-1.69886
29.31459	2.24149	-1.69886
29.31864	2.24149	-1.69886
29.32270	2.24149	-1.69886
29.32676	2.24149	-1.69886
29.33081	2.21952	-1.69886
29.33487	2.21952	-1.69886
29.33892	2.21952	-1.69886
29.34298	2.21952	-1.69886
29.34704	2.21952	-1.69886
29.35109	2.21952	-1.69886
29.35515	2.21952	-1.69886
29.35938	2.21952	-1.69886
29.36343	2.21952	-1.69886
29.36749	2.19754	-1.69886
29.37154	2.19754	-1.69886
29.37560	2.19754	-1.69886
29.37966	2.19754	-1.69886
29.38371	2.19754	-1.69886
29.38777	2.19754	-1.69886
29.39183	2.19754	-1.69886
29.39589	2.19754	-1.69886
29.39992	2.19754	-1.69886
29.40398	2.19754	-1.69886
29.40803	2.19754	-1.69886
29.41209	2.19754	-1.69886
29.41614	2.19754	-1.69886
29.42020	2.19754	-1.69886
29.42425	2.19754	-1.69886
29.42831	2.19754	-1.69886
29.43236	2.19754	-1.69886
29.43642	2.19754	-1.69886
29.44048	2.19754	-1.69886
29.44453	2.19754	-1.69886
29.44859	2.19754	-1.69886
29.45264	2.19754	-1.69886
29.45670	2.17557	-1.69886
29.46092	2.19754	-1.69886
29.46497	2.19754	-1.69886
29.46903	2.19754	-1.69886
29.47308	2.19754	-1.69886
29.47714	2.19754	-1.69886
29.48119	2.19754	-1.69886
29.48525	2.19754	-1.69886
29.48931	2.19754	-1.69886
29.49337	2.19754	-1.69886
29.49742	2.19754	-1.69886
29.50148	2.19754	-1.69886
29.50553	2.19754	-1.69886
29.50959	2.19754	-1.69886
29.51364	2.21952	-1.69886
29.51770	2.21952	-1.69886
29.52175	2.21952	-1.69886
29.52581	2.21952	-1.69886
29.52987	2.21952	-1.69886
29.53392	2.21952	-1.69886
29.53797	2.21952	-1.69886
29.54203	2.21952	-1.69886
29.54609	2.21952	-1.69886
29.55014	2.21952	-1.69886
29.55420	2.24149	-1.69886
29.55826	2.24149	-1.69886
29.56248	2.24149	-1.69886
29.56653	2.24149	-1.69886
29.57059	2.24149	-1.69886
29.57465	2.24149	-1.69886
29.57870	2.26346	-1.69886
29.58276	2.26346	-1.69886
29.58681	2.26346	-1.69886
29.59088	2.26346	-1.69886
29.59493	2.26346	-1.69886
29.59899	2.26346	-1.69886
29.60304	2.26346	-1.69886
29.60710	2.26346	-1.69886
29.61116	2.28543	-1.69886
29.61521	2.28543	-1.69886
29.61927	2.28543	-1.69886
29.62332	2.28543	-1.69886
29.62738	2.30741	-1.69886
29.63143	2.30741	-1.69886
29.63549	2.30741	-1.69886
29.63954	2.30741	-1.69886
29.64360	2.30741	-1.69886
29.64765	2.32938	-1.69886
29.65171	2.32938	-1.69886
29.65577	2.30741	-1.69886
29.65982	2.32938	-1.69886
29.66405	2.32938	-1.69886
29.66811	2.32938	-1.69886
29.67216	2.35135	-1.69886
29.67622	2.35135	-1.69886
29.68028	2.35135	-1.69886
29.68433	2.35135	-1.69886
29.68839	2.35135	-1.69886
29.69246	2.37332	-1.69886
29.69651	2.37332	-1.69886
29.70057	2.37332	-1.69886
29.70462	2.37332	-1.69886
29.70868	2.37332	-1.69886
29.71273	2.39530	-1.69886
29.71679	2.39530	-1.69886
29.72084	2.39530	-1.69886
29.72490	2.39530	-1.69886
29.72896	2.39530	-1.69886
29.73301	2.39530	-1.69886
29.73707	2.41727	-1.69886
29.74112	2.41727	-1.69886
29.74518	2.41727	-1.69886
29.74923	2.41727	-1.69886
29.75329	2.43924	-1.69886
29.75734	2.43924	-1.69886
29.76140	2.43924	-1.69886
29.76562	2.43924	-1.69886
29.76968	2.46121	-1.69886
29.77374	2.46121	-1.69886
29.77779	2.46121	-1.69886
29.78185	2.46121	-1.69886
29.78590	2.46121	-1.69886
29.78996	2.46121	-1.69886
29.79402	2.46121	-1.69886
29.79808	2.48319	-1.69886
29.80213	2.48319	-1.69886
29.80619	2.46121	-1.69886
29.81025	2.48319	-1.69886
29.81431	2.48319	-1.69886
29.81836	2.48319	-1.69886
29.82242	2.48319	-1.69886
29.82648	2.48319	-1.69886
29.83053	2.50516	-1.69886
29.83459	2.50516	-1.69886
29.83864	2.50516	-1.69886
29.84270	2.50516	-1.69886
29.84676	2.50516	-1.69886
29.85081	2.52713	-1.69886
29.85487	2.52713	-1.69886
29.85892	2.52713	-1.69886
29.86298	2.52713	-1.69886
29.86720	2.52713	-1.69886
29.87126	2.52713	-1.69886
29.87532	2.52713	-1.69886
29.87938	2.52713	-1.69886
29.88343	2.52713	-1.69886
29.88749	2.54911	-1.69886
29.89155	2.54911	-1.69886
29.89562	2.54911	-1.69886
29.89968	2.54911	-1.69886
29.90374	2.54911	-1.69886
29.90780	2.54911	-1.69886
29.91186	2.54911	-1.69886
29.91592	2.54911	-1.69886
29.91997	2.57108	-1.69886
29.92403	2.57108	-1.69886
29.92809	2.57108	-1.69886
29.93214	2.57108	-1.69886
29.93620	2.57108	-1.69886
29.94025	2.57108	-1.69886
29.94431	2.57108	-1.69886
29.94836	2.59305	-1.69886
29.95242	2.57108	-1.69886
29.95647	2.57108	-1.69886
29.96053	2.57108	-1.69886
29.96458	2.59305	-1.69886
29.96880	2.59305	-1.69886
29.97286	2.59305	-1.69886
29.97691	2.59305	-1.69886
29.98097	2.59305	-1.69886
29.98503	2.59305	-1.69886
29.98909	2.59305	-1.69886
29.99314	2.59305	-1.69886
29.99722	2.61502	-1.69886
