Time (s)   roll (deg)   Delta
0.00043	-10.61252	11.27051
0.00449	-10.61252	11.27051
0.00855	-10.61252	11.27051
0.01261	-10.61252	11.27051
0.01668	-10.61252	11.27051
0.02074	-10.61252	11.27051
0.02480	-10.61252	11.27051
0.02885	-10.61252	11.27051
0.03291	-10.61252	11.27051
0.03697	-10.61252	11.27051
0.04103	-10.61252	11.27051
0.04509	-10.61252	11.27051
0.04915	-10.59054	11.27051
0.05320	-10.59054	11.27051
0.05726	-10.59054	11.27051
0.06132	-10.59054	11.27051
0.06537	-10.59054	11.27051
0.06943	-10.59054	11.27051
0.07349	-10.59054	11.27051
0.07754	-10.59054	11.27051
0.08160	-10.56857	11.27051
0.08565	-10.56857	11.27051
0.08971	-10.59054	11.27051
0.09377	-10.59054	11.27051
0.09782	-10.56857	11.27051
0.10208	-10.59054	11.27051
0.10614	-10.56857	11.27051
0.11020	-10.56857	11.27051
0.11425	-10.56857	11.27051
0.11831	-10.56857	11.27051
0.12236	-10.56857	11.27051
0.12642	-10.56857	11.27051
0.13048	-10.56857	11.27051
0.13454	-10.56857	11.27051
0.13860	-10.56857	11.27051
0.14265	-10.56857	11.27051
0.14671	-10.56857	11.27051
0.15077	-10.56857	11.27051
0.15483	-10.56857	11.27051
0.15889	-10.56857	11.27051
0.16295	-10.56857	11.27051
0.16701	-10.56857	11.27051
0.17106	-10.56857	11.27051
0.17512	-10.59054	11.27051
0.17918	-10.59054	11.27051
0.18324	-10.59054	11.27051
0.18729	-10.59054	11.27051
0.19135	-10.59054	11.27051
0.19541	-10.59054	11.27051
0.19946	-10.59054	11.27051
0.20375	-10.59054	11.27051
0.20781	-10.59054	11.27051
0.21186	-10.59054	11.27051
0.21592	-10.59054	11.27051
0.21998	-10.61252	11.27051
0.22403	-10.61252	11.27051
0.22809	-10.61252	11.27051
0.23217	-10.61252	11.27051
0.23623	-10.61252	11.27051
0.24029	-10.63449	11.27051
0.24432	-10.63449	11.27051
0.24838	-10.63449	11.27051
0.25244	-10.63449	11.27051
0.25649	-10.63449	11.27051
0.26055	-10.63449	11.27051
0.26461	-10.65646	11.27051
0.26866	-10.65646	11.27051
0.27272	-10.67843	11.27051
0.27678	-10.67843	11.27051
0.28083	-10.67843	11.27051
0.28489	-10.67843	11.27051
0.28895	-10.70041	11.27051
0.29301	-10.70041	11.27051
0.29707	-10.70041	11.27051
0.30113	-10.70041	11.27051
0.30540	-10.72238	11.27051
0.30946	-10.74435	11.27051
0.31351	-10.74435	11.27051
0.31757	-10.74435	11.27051
0.32163	-10.74435	11.27051
0.32568	-10.74435	11.27051
0.32974	-10.76632	11.27051
0.33382	-10.78830	11.27051
0.33788	-10.81027	11.27051
0.34194	-10.81027	11.27051
0.34600	-10.81027	11.27051
0.35006	-10.81027	11.27051
0.35412	-10.83224	11.27051
0.35817	-10.83224	11.27051
0.36223	-10.85422	11.27051
0.36629	-10.85422	11.27051
0.37035	-10.87619	11.27051
0.37440	-10.87619	11.27051
0.37846	-10.89816	11.27051
0.38252	-10.92013	11.27051
0.38657	-10.92013	11.27051
0.39063	-10.92013	11.27051
0.39468	-10.94211	11.27051
0.39874	-10.94211	11.27051
0.40280	-10.96408	11.27051
0.40707	-10.98605	11.27051
0.41113	-10.98605	11.27051
0.41519	-10.98605	11.27051
0.41924	-11.00802	11.27051
0.42330	-11.03000	11.27051
0.42736	-11.05197	11.27051
0.43141	-11.05197	11.27051
0.43549	-11.07394	11.27051
0.43955	-11.07394	11.27051
0.44361	-11.09591	11.27051
0.44767	-11.11789	11.27051
0.45173	-11.11789	11.27051
0.45579	-11.13986	11.27051
0.45985	-11.13986	11.27051
0.46390	-11.16183	11.27051
0.46796	-11.20578	11.27051
0.47202	-11.20578	11.27051
0.47608	-11.20578	11.27051
0.48013	-11.22775	11.27051
0.48419	-11.24972	11.27051
0.48825	-11.27170	11.27051
0.49230	-11.27170	11.27051
0.49632	-11.27170	11.27051
0.50038	-11.31564	11.27051
0.50443	-11.31564	11.27051
0.50872	-11.35959	11.27051
0.51278	-11.35959	11.27051
0.51683	-11.35959	11.27051
0.52089	-11.38156	11.27051
0.52495	-11.40353	11.27051
0.52900	-11.42550	11.27051
0.53306	-11.44748	11.27051
0.53714	-11.44748	11.27051
0.54120	-11.46945	11.27051
0.54525	-11.49142	11.27051
0.54932	-11.51339	11.27051
0.55338	-11.53537	11.27051
0.55743	-11.53537	11.27051
0.56149	-11.55734	11.27051
0.56555	-11.57931	11.27051
0.56961	-11.60129	11.27051
0.57366	-11.62326	11.27051
0.57772	-11.62326	11.27051
0.58178	-11.64523	11.27051
0.58583	-11.66720	11.27051
0.58989	-11.68918	11.27051
0.59395	-11.71115	11.27051
0.59801	-11.71115	11.27051
0.60207	-11.73312	11.27051
0.60613	-11.75509	11.27051
0.61041	-11.77707	11.27051
0.61447	-11.79904	11.27051
0.61853	-11.84298	11.27051
0.62259	-11.84298	11.27051
0.62664	-11.86496	11.27051
0.63070	-11.88693	11.27051
0.63476	-11.90890	11.27051
0.63884	-11.93088	11.27051
0.64290	-11.93088	11.27051
0.64703	-11.95285	11.27051
0.65111	-11.97482	11.27051
0.65517	-12.01877	11.27051
0.65923	-12.04074	11.27051
0.66328	-12.06271	11.27051
0.66735	-12.06271	11.27051
0.67141	-12.08468	11.27051
0.67546	-12.10666	11.27051
0.67952	-12.12863	11.27051
0.68358	-12.17257	11.27051
0.68763	-12.17257	11.27051
0.69169	-12.19455	11.27051
0.69575	-12.21652	11.27051
0.69980	-12.23849	11.27051
0.70386	-12.26047	11.27051
0.70791	-12.26047	11.27051
0.71219	-12.28244	11.27051
0.71625	-12.32638	11.27051
0.72030	-12.34836	11.27051
0.72431	-12.37033	11.27051
0.72837	-12.37033	11.27051
0.73243	-12.41427	11.27051
0.73648	-12.43625	11.27051
0.74056	-12.45822	11.27051
0.74462	-12.48019	11.27051
0.74868	-12.48019	11.27051
0.75274	-12.50216	11.27051
0.75680	-12.54611	11.27051
0.76086	-12.56808	11.27051
0.76491	-12.59006	11.27051
0.76897	-12.59006	11.27051
0.77303	-12.63400	11.27051
0.77709	-12.65597	11.27051
0.78114	-12.67795	11.27051
0.78520	-12.69992	11.27051
0.78926	-12.74386	11.27051
0.79331	-12.74386	11.27051
0.79737	-12.76584	11.27051
0.80143	-12.78781	11.27051
0.80548	-12.83175	11.27051
0.80954	-12.85373	11.27051
0.81382	-12.85373	11.27051
0.81788	-12.87570	11.27051
0.82194	-12.91964	11.27051
0.82600	-12.94162	11.27051
0.83005	-12.96359	11.27051
0.83411	-13.00754	11.27051
0.83817	-13.00754	11.27051
0.84224	-13.02951	11.27051
0.84630	-13.05148	11.27051
0.85036	-13.09543	11.27051
0.85442	-13.11740	11.27051
0.85848	-13.11740	11.27051
0.86254	-13.13937	11.27051
0.86660	-13.16134	11.27051
0.87066	-13.20529	11.27051
0.87471	-13.22726	11.27051
0.87877	-13.22726	11.27051
0.88283	-13.27121	11.27051
0.88688	-13.29318	11.27051
0.89094	-13.33713	11.27051
0.89500	-13.35910	11.27051
0.89906	-13.35910	11.27051
0.90311	-13.38107	11.27051
0.90717	-13.42502	11.27051
0.91123	-13.44699	11.27051
0.91551	-13.46896	11.27051
0.91957	-13.51291	11.27051
0.92363	-13.51291	11.27051
0.92769	-13.53488	11.27051
0.93174	-13.57882	11.27051
0.93580	-13.60080	11.27051
0.93986	-13.62277	11.27051
0.94393	-13.62277	11.27051
0.94800	-13.66672	11.27051
0.95206	-13.68869	11.27051
0.95612	-13.71066	11.27051
0.96017	-13.73263	11.27051
0.96423	-13.75461	11.27051
0.96829	-13.75461	11.27051
0.97231	-13.79855	11.27051
0.97637	-13.82052	11.27051
0.98043	-13.86447	11.27051
0.98448	-13.88644	11.27051
0.98854	-13.88644	11.27051
0.99260	-13.90841	11.27051
0.99665	-13.95236	11.27051
1.00071	-13.97433	11.27051
1.00477	-13.97433	11.27051
1.00882	-13.99631	11.27051
1.01288	-14.04025	11.27051
1.01716	-14.06222	11.27051
1.02121	-14.10617	11.27051
1.02527	-14.10617	11.27051
1.02933	-14.12814	11.27051
1.03339	-14.15011	11.27051
1.03744	-14.17209	11.27051
1.04150	-14.19406	11.27051
1.04557	-14.23800	11.27051
1.04963	-14.23800	11.27051
1.05370	-14.25998	11.27051
1.05777	-14.30392	11.27051
1.06182	-14.30392	11.27051
1.06589	-14.34787	11.27051
1.06994	-14.34787	11.27051
1.07400	-14.36984	11.27051
1.07806	-14.39181	11.27051
1.08212	-14.41379	11.27051
1.08617	-14.45773	11.27051
1.09023	-14.47970	11.27051
1.09429	-14.47970	11.27051
1.09834	-14.50168	11.27051
1.10240	-14.52365	11.27051
1.10646	-14.56759	11.27051
1.11052	-14.56759	11.27051
1.11458	-14.56759	11.27051
1.11887	-14.61154	11.27051
1.12292	-14.63351	11.27051
1.12698	-14.65548	11.27051
1.13104	-14.67746	11.27051
1.13509	-14.69943	11.27051
1.13915	-14.69943	11.27051
1.14321	-14.72140	11.27051
1.14729	-14.76535	11.27051
1.15135	-14.78732	11.27051
1.15544	-14.80929	11.27051
1.15949	-14.80929	11.27051
1.16356	-14.83127	11.27051
1.16762	-14.85324	11.27051
1.17167	-14.87521	11.27051
1.17573	-14.89718	11.27051
1.17979	-14.89718	11.27051
1.18384	-14.91916	11.27051
1.18790	-14.94113	11.27051
1.19196	-14.96310	11.27051
1.19601	-14.98507	11.27051
1.20007	-14.98507	11.27051
1.20413	-15.00705	11.27051
1.20818	-15.02902	11.27051
1.21224	-15.05099	11.27051
1.21630	-15.07297	11.27051
1.22054	-15.09494	11.27051
1.22459	-15.09494	11.27051
1.22865	-15.11691	11.27051
1.23271	-15.13888	11.27051
1.23676	-15.16086	11.27051
1.24082	-15.18283	11.27051
1.24488	-15.18283	11.27051
1.24895	-15.20480	11.27051
1.25301	-15.20480	11.27051
1.25710	-15.24875	11.27051
1.26115	-15.24875	11.27051
1.26522	-15.24875	11.27051
1.26927	-15.27072	11.27051
1.27333	-15.29269	11.27051
1.27739	-15.31466	11.27051
1.28145	-15.33664	11.27051
1.28550	-15.33664	11.27051
1.28956	-15.33664	11.27051
1.29362	-15.38058	11.27051
1.29768	-15.40256	11.27051
1.30173	-15.40256	11.27051
1.30579	-15.40256	11.27051
1.30985	-15.42453	11.27051
1.31390	-15.44650	11.27051
1.31796	-15.44650	11.27051
1.32225	-15.46847	11.27051
1.32630	-15.46847	11.27051
1.33036	-15.49045	11.27051
1.33442	-15.49045	11.27051
1.33847	-15.51242	11.27051
1.34254	-15.53439	11.27051
1.34659	-15.55636	11.27051
1.35067	-15.55636	11.27051
1.35473	-15.55636	11.27051
1.35880	-15.57834	11.27051
1.36286	-15.57834	11.27051
1.36692	-15.60031	11.27051
1.37097	-15.60031	11.27051
1.37503	-15.60031	11.27051
1.37909	-15.62228	11.27051
1.38315	-15.64425	11.27051
1.38721	-15.64425	11.27051
1.39126	-15.66623	11.27051
1.39532	-15.66623	11.27051
1.39938	-15.66623	11.27051
1.40343	-15.68820	11.27051
1.40749	-15.71017	11.27051
1.41155	-15.71017	11.27051
1.41560	-15.71017	11.27051
1.41966	-15.71017	11.27051
1.42395	-15.73214	11.27051
1.42800	-15.73214	11.27051
1.43206	-15.75412	11.27051
1.43612	-15.75412	11.27051
1.44018	-15.75412	11.27051
1.44423	-15.77609	11.27051
1.44829	-15.77609	11.27051
1.45234	-15.77609	11.27051
1.45640	-15.77609	11.27051
1.46046	-15.79806	11.27051
1.46452	-15.79806	11.27051
1.46858	-15.82004	11.27051
1.47264	-15.82004	11.27051
1.47670	-15.82004	11.27051
1.48076	-15.82004	11.27051
1.48483	-15.82004	11.27051
1.48889	-15.82004	11.27051
1.49294	-15.84201	11.27051
1.49700	-15.86398	11.27051
1.50106	-15.86398	11.27051
1.50512	-15.84201	11.27051
1.50917	-15.86398	11.27051
1.51323	-15.86398	11.27051
1.51729	-15.86398	11.27051
1.52134	-15.86398	11.27051
1.52563	-15.86398	11.27051
1.52969	-15.86398	11.27051
1.53374	-15.88595	11.27051
1.53780	-15.86398	11.27051
1.54202	-15.86398	11.27051
1.54608	-15.88595	11.27051
1.55014	-15.88595	11.27051
1.55421	-15.88595	11.27051
1.55827	-15.90793	11.27051
1.56234	-15.90793	11.27051
1.56640	-15.90793	11.27051
1.57045	-15.88595	11.27051
1.57451	-15.90793	11.27051
1.57857	-15.88595	11.27051
1.58263	-15.88595	11.27051
1.58668	-15.88595	11.27051
1.59074	-15.88595	11.27051
1.59480	-15.88595	11.27051
1.59886	-15.88595	11.27051
1.60292	-15.88595	11.27051
1.60697	-15.88595	11.27051
1.61103	-15.88595	11.27051
1.61509	-15.88595	11.27051
1.61914	-15.88595	11.27051
1.62320	-15.88595	11.27051
1.62747	-15.88595	11.27051
1.63153	-15.88595	11.27051
1.63559	-15.88595	11.27051
1.63965	-15.86398	11.27051
1.64370	-15.88595	11.27051
1.64776	-15.86398	11.27051
1.65182	-15.86398	11.27051
1.65589	-15.86398	11.27051
1.65996	-15.86398	11.27051
1.66403	-15.86398	11.27051
1.66809	-15.84201	11.27051
1.67215	-15.84201	11.27051
1.67621	-15.84201	11.27051
1.68026	-15.84201	11.27051
1.68431	-15.84201	11.27051
1.68837	-15.82004	11.27051
1.69243	-15.82004	11.27051
1.69648	-15.82004	11.27051
1.70054	-15.82004	11.27051
1.70460	-15.79806	11.27051
1.70865	-15.82004	11.27051
1.71271	-15.79806	11.27051
1.71677	-15.79806	11.27051
1.72082	-15.79806	11.27051
1.72488	-15.77609	11.27051
1.72915	-15.77609	11.27051
1.73321	-15.77609	11.27051
1.73726	-15.75412	11.27051
1.74132	-15.75412	11.27051
1.74538	-15.75412	11.27051
1.74943	-15.75412	11.27051
1.75349	-15.73214	11.27051
1.75756	-15.71017	11.27051
1.76162	-15.71017	11.27051
1.76568	-15.71017	11.27051
1.76974	-15.71017	11.27051
1.77380	-15.68820	11.27051
1.77786	-15.68820	11.27051
1.78192	-15.68820	11.27051
1.78598	-15.66623	11.27051
1.79004	-15.66623	11.27051
1.79409	-15.64425	11.27051
1.79815	-15.64425	11.27051
1.80221	-15.64425	11.27051
1.80626	-15.62228	11.27051
1.81032	-15.62228	11.27051
1.81437	-15.60031	11.27051
1.81843	-15.57834	11.27051
1.82249	-15.57834	11.27051
1.82654	-15.57834	11.27051
1.83082	-15.57834	11.27051
1.83488	-15.55636	11.27051
1.83894	-15.53439	11.27051
1.84299	-15.53439	11.27051
1.84705	-15.53439	11.27051
1.85111	-15.51242	11.27051
1.85516	-15.49045	11.27051
1.85924	-15.49045	11.27051
1.86331	-15.46847	11.27051
1.86736	-15.46847	11.27051
1.87142	-15.44650	11.27051
1.87548	-15.44650	11.27051
1.87953	-15.42453	11.27051
1.88359	-15.42453	11.27051
1.88765	-15.40256	11.27051
1.89170	-15.40256	11.27051
1.89576	-15.38058	11.27051
1.89982	-15.38058	11.27051
1.90387	-15.35861	11.27051
1.90793	-15.35861	11.27051
1.91199	-15.33664	11.27051
1.91604	-15.33664	11.27051
1.92010	-15.31466	11.27051
1.92416	-15.29269	11.27051
1.92821	-15.27072	11.27051
1.93251	-15.27072	11.27051
1.93657	-15.27072	11.27051
1.94062	-15.24875	11.27051
1.94468	-15.22677	11.27051
1.94873	-15.20480	11.27051
1.95279	-15.20480	11.27051
1.95685	-15.18283	11.27051
1.96092	-15.18283	11.27051
1.96499	-15.16086	11.27051
1.96905	-15.16086	11.27051
1.97310	-15.11691	11.27051
1.97716	-15.11691	11.27051
1.98122	-15.11691	11.27051
1.98527	-15.09494	11.27051
1.98933	-15.07297	11.27051
1.99339	-15.05099	11.27051
1.99745	-15.05099	11.27051
2.00150	-15.05099	11.27051
2.00556	-15.02902	11.27051
2.00962	-15.02902	11.27051
2.01367	-14.98507	11.27051
2.01773	-14.98507	11.27051
2.02179	-14.98507	11.27051
2.02584	-14.96310	11.27051
2.02990	-14.94113	11.27051
2.03419	-14.94113	11.27051
2.03825	-14.94113	11.27051
2.04231	-14.89718	11.27051
2.04636	-14.89718	11.27051
2.05042	-14.87521	11.27051
2.05448	-14.87521	11.27051
2.05854	-14.85324	11.27051
2.06261	-14.85324	11.27051
2.06667	-14.83127	11.27051
2.07073	-14.80929	11.27051
2.07479	-14.80929	11.27051
2.07957	-14.76535	11.27051
2.08363	-14.76535	11.27051
2.08769	-14.76535	11.27051
2.09175	-14.74338	11.27051
2.09580	-14.74338	11.27051
2.09986	-14.72140	11.27051
2.10392	-14.69943	11.27051
2.10797	-14.69943	11.27051
2.11203	-14.67746	11.27051
2.11609	-14.67746	11.27051
2.12015	-14.65548	11.27051
2.12421	-14.63351	11.27051
2.12827	-14.63351	11.27051
2.13232	-14.61154	11.27051
2.13661	-14.61154	11.27051
2.14067	-14.58957	11.27051
2.14473	-14.56759	11.27051
2.14881	-14.56759	11.27051
2.15287	-14.56759	11.27051
2.15692	-14.54562	11.27051
2.16098	-14.52365	11.27051
2.16505	-14.50168	11.27051
2.16911	-14.50168	11.27051
2.17317	-14.50168	11.27051
2.17724	-14.47970	11.27051
2.18130	-14.47970	11.27051
2.18536	-14.45773	11.27051
2.18941	-14.43576	11.27051
2.19347	-14.43576	11.27051
2.19753	-14.43576	11.27051
2.20158	-14.41379	11.27051
2.20564	-14.41379	11.27051
2.20970	-14.39181	11.27051
2.21375	-14.39181	11.27051
2.21781	-14.36984	11.27051
2.22187	-14.34787	11.27051
2.22592	-14.34787	11.27051
2.22998	-14.34787	11.27051
2.23404	-14.32589	11.27051
2.23832	-14.32589	11.27051
2.24238	-14.30392	11.27051
2.24643	-14.28195	11.27051
2.25049	-14.28195	11.27051
2.25455	-14.28195	11.27051
2.25860	-14.28195	11.27051
2.26268	-14.25998	11.27051
2.26676	-14.25998	11.27051
2.27082	-14.23800	11.27051
2.27488	-14.21603	11.27051
2.27894	-14.21603	11.27051
2.28300	-14.21603	11.27051
2.28705	-14.19406	11.27051
2.29111	-14.17209	11.27051
2.29517	-14.17209	11.27051
2.29923	-14.17209	11.27051
2.30328	-14.15011	11.27051
2.30734	-14.15011	11.27051
2.31140	-14.12814	11.27051
2.31545	-14.12814	11.27051
2.31951	-14.12814	11.27051
2.32357	-14.12814	11.27051
2.32763	-14.10617	11.27051
2.33168	-14.08420	11.27051
2.33574	-14.08420	11.27051
2.34003	-14.08420	11.27051
2.34410	-14.08420	11.27051
2.34815	-14.06222	11.27051
2.35221	-14.04025	11.27051
2.35627	-14.04025	11.27051
2.36032	-14.04025	11.27051
2.36440	-14.04025	11.27051
2.36848	-14.01828	11.27051
2.37253	-14.01828	11.27051
2.37659	-13.99631	11.27051
2.38065	-13.99631	11.27051
2.38471	-13.99631	11.27051
2.38877	-13.99631	11.27051
2.39282	-13.97433	11.27051
2.39688	-13.95236	11.27051
2.40094	-13.97433	11.27051
2.40499	-13.95236	11.27051
2.40905	-13.95236	11.27051
2.41311	-13.93039	11.27051
2.41716	-13.95236	11.27051
2.42122	-13.93039	11.27051
2.42528	-13.90841	11.27051
2.42933	-13.90841	11.27051
2.43339	-13.93039	11.27051
2.43745	-13.90841	11.27051
2.44173	-13.90841	11.27051
2.44579	-13.88644	11.27051
2.44984	-13.88644	11.27051
2.45390	-13.88644	11.27051
2.45795	-13.88644	11.27051
2.46201	-13.86447	11.27051
2.46609	-13.86447	11.27051
2.47016	-13.86447	11.27051
2.47422	-13.86447	11.27051
2.47828	-13.86447	11.27051
2.48235	-13.84250	11.27051
2.48640	-13.84250	11.27051
2.49046	-13.84250	11.27051
2.49452	-13.84250	11.27051
2.49858	-13.82052	11.27051
2.50263	-13.84250	11.27051
2.50669	-13.82052	11.27051
2.51075	-13.82052	11.27051
2.51481	-13.82052	11.27051
2.51886	-13.82052	11.27051
2.52292	-13.82052	11.27051
2.52698	-13.82052	11.27051
2.53103	-13.79855	11.27051
2.53509	-13.79855	11.27051
2.53915	-13.79855	11.27051
2.54344	-13.79855	11.27051
2.54750	-13.77658	11.27051
2.55156	-13.79855	11.27051
2.55561	-13.79855	11.27051
2.55967	-13.79855	11.27051
2.56373	-13.77658	11.27051
2.56780	-13.77658	11.27051
2.57188	-13.77658	11.27051
2.57594	-13.77658	11.27051
2.58000	-13.77658	11.27051
2.58406	-13.77658	11.27051
2.58812	-13.77658	11.27051
2.59218	-13.77658	11.27051
2.59624	-13.77658	11.27051
2.60032	-13.75461	11.27051
2.60437	-13.75461	11.27051
2.60843	-13.77658	11.27051
2.61249	-13.75461	11.27051
2.61654	-13.75461	11.27051
2.62060	-13.75461	11.27051
2.62466	-13.75461	11.27051
2.62871	-13.75461	11.27051
2.63277	-13.75461	11.27051
2.63683	-13.75461	11.27051
2.64088	-13.75461	11.27051
2.64516	-13.75461	11.27051
2.64922	-13.75461	11.27051
2.65327	-13.75461	11.27051
2.65733	-13.75461	11.27051
2.66139	-13.75461	11.27051
2.66544	-13.75461	11.27051
2.66950	-13.75461	11.27051
2.67358	-13.73263	11.27051
2.67764	-13.75461	11.27051
2.68169	-13.73263	11.27051
2.68575	-13.73263	11.27051
2.68981	-13.75461	11.27051
2.69386	-13.75461	11.27051
2.69792	-13.73263	11.27051
2.70198	-13.75461	11.27051
2.70603	-13.75461	11.27051
2.71009	-13.75461	11.27051
2.71415	-13.75461	11.27051
2.71820	-13.75461	11.27051
2.72226	-13.73263	11.27051
2.72632	-13.73263	11.27051
2.73037	-13.75461	11.27051
2.73443	-13.75461	11.27051
2.73849	-13.75461	11.27051
2.74255	-13.75461	11.27051
2.74683	-13.75461	11.27051
2.75089	-13.75461	11.27051
2.75495	-13.75461	11.27051
2.75900	-13.75461	11.27051
2.76306	-13.75461	11.27051
2.76712	-13.75461	11.27051
2.77117	-13.75461	11.27051
2.77523	-13.77658	11.27051
2.77929	-13.75461	11.27051
2.78335	-13.75461	11.27051
2.78772	-13.77658	11.27051
2.79178	-13.77658	11.27051
2.79584	-13.75461	11.27051
2.79990	-13.77658	11.27051
2.80396	-13.75461	11.27051
2.80802	-13.77658	11.27051
2.81208	-13.77658	11.27051
2.81614	-13.77658	11.27051
2.82020	-13.77658	11.27051
2.82426	-13.77658	11.27051
2.82831	-13.77658	11.27051
2.83237	-13.77658	11.27051
2.83643	-13.77658	11.27051
2.84049	-13.79855	11.27051
2.84454	-13.77658	11.27051
2.84883	-13.77658	11.27051
2.85288	-13.79855	11.27051
2.85694	-13.79855	11.27051
2.86100	-13.77658	11.27051
2.86506	-13.79855	11.27051
2.86912	-13.79855	11.27051
2.87317	-13.79855	11.27051
2.87725	-13.79855	11.27051
2.88131	-13.79855	11.27051
2.88537	-13.79855	11.27051
2.88943	-13.82052	11.27051
2.89349	-13.82052	11.27051
2.89754	-13.79855	11.27051
2.90160	-13.79855	11.27051
2.90566	-13.82052	11.27051
2.90972	-13.82052	11.27051
2.91377	-13.82052	11.27051
2.91783	-13.82052	11.27051
2.92189	-13.82052	11.27051
2.92594	-13.84250	11.27051
2.93000	-13.84250	11.27051
2.93406	-13.82052	11.27051
2.93811	-13.84250	11.27051
2.94217	-13.84250	11.27051
2.94623	-13.84250	11.27051
2.95051	-13.84250	11.27051
2.95457	-13.84250	11.27051
2.95862	-13.84250	11.27051
2.96268	-13.86447	11.27051
2.96674	-13.86447	11.27051
2.97080	-13.84250	11.27051
2.97485	-13.86447	11.27051
2.97893	-13.86447	11.27051
2.98299	-13.86447	11.27051
2.98705	-13.86447	11.27051
2.99111	-13.88644	11.27051
2.99517	-13.88644	11.27051
2.99922	-13.88644	11.27051
3.00328	-13.88644	11.27051
3.00734	-13.88644	11.27051
3.01140	-13.88644	11.27051
3.01545	-13.88644	11.27051
3.01951	-13.88644	11.27051
3.02357	-13.90841	11.27051
3.02762	-13.90841	11.27051
3.03168	-13.90841	11.27051
3.03574	-13.88644	11.27051
3.03979	-13.90841	11.27051
3.04385	-13.93039	11.27051
3.04791	-13.90841	11.27051
3.05220	-13.90841	11.27051
3.05626	-13.93039	11.27051
3.06032	-13.93039	11.27051
3.06437	-13.93039	11.27051
3.06843	-13.93039	11.27051
3.07249	-13.93039	11.27051
3.07655	-13.93039	11.27051
3.08062	-13.95236	11.27051
3.08469	-13.95236	11.27051
3.08874	-13.95236	11.27051
3.09280	-13.95236	11.27051
3.09686	-13.95236	11.27051
3.10092	-13.95236	11.27051
3.10498	-13.95236	11.27051
3.10904	-13.97433	11.27051
3.11310	-13.97433	11.27051
3.11716	-13.97433	11.27051
3.12121	-13.97433	11.27051
3.12527	-13.97433	11.27051
3.12933	-13.97433	11.27051
3.13338	-13.97433	11.27051
3.13744	-13.97433	11.27051
3.14150	-13.99631	11.27051
3.14556	-13.99631	11.27051
3.14962	-14.01828	11.27051
3.15391	-13.99631	11.27051
3.15796	-13.99631	11.27051
3.16202	-13.99631	11.27051
3.16608	-14.01828	11.27051
3.17013	-14.01828	11.27051
3.17420	-14.01828	11.27051
3.17825	-14.04025	11.27051
3.18232	-14.04025	11.27051
3.18638	-14.01828	11.27051
3.19074	-14.04025	11.27051
3.19480	-14.04025	11.27051
3.19886	-14.04025	11.27051
3.20292	-14.04025	11.27051
3.20698	-14.04025	11.27051
3.21103	-14.06222	11.27051
3.21509	-14.06222	11.27051
3.21915	-14.06222	11.27051
3.22320	-14.06222	11.27051
3.22726	-14.06222	11.27051
3.23132	-14.08420	11.27051
3.23537	-14.08420	11.27051
3.23943	-14.08420	11.27051
3.24349	-14.08420	11.27051
3.24754	-14.08420	11.27051
3.25160	-14.08420	11.27051
3.25588	-14.08420	11.27051
3.25994	-14.10617	11.27051
3.26399	-14.10617	11.27051
3.26805	-14.10617	11.27051
3.27211	-14.10617	11.27051
3.27617	-14.10617	11.27051
3.28022	-14.10617	11.27051
3.28430	-14.12814	11.27051
3.28832	-14.12814	11.27051
3.29238	-14.12814	11.27051
3.29644	-14.12814	11.27051
3.30050	-14.15011	11.27051
3.30456	-14.15011	11.27051
3.30861	-14.15011	11.27051
3.31266	-14.15011	11.27051
3.31672	-14.17209	11.27051
3.32078	-14.15011	11.27051
3.32483	-14.17209	11.27051
3.32889	-14.17209	11.27051
3.33295	-14.17209	11.27051
3.33700	-14.17209	11.27051
3.34106	-14.17209	11.27051
3.34512	-14.17209	11.27051
3.34918	-14.19406	11.27051
3.35324	-14.19406	11.27051
3.35752	-14.19406	11.27051
3.36158	-14.19406	11.27051
3.36564	-14.19406	11.27051
3.36970	-14.19406	11.27051
3.37375	-14.19406	11.27051
3.37781	-14.19406	11.27051
3.38187	-14.21603	11.27051
3.38594	-14.21603	11.27051
3.39000	-14.21603	11.27051
3.39406	-14.23800	11.27051
3.39813	-14.23800	11.27051
3.40219	-14.23800	11.27051
3.40624	-14.23800	11.27051
3.41030	-14.25998	11.27051
3.41436	-14.25998	11.27051
3.41842	-14.25998	11.27051
3.42247	-14.23800	11.27051
3.42653	-14.25998	11.27051
3.43059	-14.25998	11.27051
3.43464	-14.25998	11.27051
3.43870	-14.25998	11.27051
3.44276	-14.25998	11.27051
3.44681	-14.25998	11.27051
3.45087	-14.28195	11.27051
3.45493	-14.25998	11.27051
3.45922	-14.25998	11.27051
3.46328	-14.28195	11.27051
3.46733	-14.28195	11.27051
3.47139	-14.28195	11.27051
3.47545	-14.28195	11.27051
3.47951	-14.28195	11.27051
3.48357	-14.28195	11.27051
3.48764	-14.30392	11.27051
3.49171	-14.30392	11.27051
3.49576	-14.30392	11.27051
3.49982	-14.30392	11.27051
3.50388	-14.30392	11.27051
3.50794	-14.30392	11.27051
3.51200	-14.30392	11.27051
3.51606	-14.30392	11.27051
3.52012	-14.32589	11.27051
3.52417	-14.32589	11.27051
3.52823	-14.32589	11.27051
3.53229	-14.32589	11.27051
3.53632	-14.32589	11.27051
3.54037	-14.32589	11.27051
3.54443	-14.32589	11.27051
3.54849	-14.32589	11.27051
3.55254	-14.32589	11.27051
3.55660	-14.32589	11.27051
3.56088	-14.34787	11.27051
3.56494	-14.34787	11.27051
3.56900	-14.32589	11.27051
3.57305	-14.34787	11.27051
3.57711	-14.34787	11.27051
3.58117	-14.34787	11.27051
3.58522	-14.34787	11.27051
3.58930	-14.34787	11.27051
3.59336	-14.32589	11.27051
3.59742	-14.34787	11.27051
3.60149	-14.34787	11.27051
3.60555	-14.34787	11.27051
3.60960	-14.34787	11.27051
3.61366	-14.34787	11.27051
3.61772	-14.36984	11.27051
3.62178	-14.34787	11.27051
3.62583	-14.36984	11.27051
3.62989	-14.36984	11.27051
3.63395	-14.34787	11.27051
3.63800	-14.34787	11.27051
3.64206	-14.34787	11.27051
3.64612	-14.34787	11.27051
3.65017	-14.34787	11.27051
3.65423	-14.34787	11.27051
3.65829	-14.34787	11.27051
3.66258	-14.34787	11.27051
3.66664	-14.34787	11.27051
3.67070	-14.36984	11.27051
3.67476	-14.36984	11.27051
3.67882	-14.34787	11.27051
3.68288	-14.36984	11.27051
3.68693	-14.34787	11.27051
3.69101	-14.34787	11.27051
3.69507	-14.34787	11.27051
3.69913	-14.34787	11.27051
3.70319	-14.34787	11.27051
3.70725	-14.36984	11.27051
3.71130	-14.34787	11.27051
3.71536	-14.34787	11.27051
3.71942	-14.34787	11.27051
3.72347	-14.36984	11.27051
3.72753	-14.34787	11.27051
3.73159	-14.34787	11.27051
3.73564	-14.36984	11.27051
3.73970	-14.36984	11.27051
3.74376	-14.34787	11.27051
3.74781	-14.34787	11.27051
3.75187	-14.34787	11.27051
3.75593	-14.34787	11.27051
3.75998	-14.34787	11.27051
3.76426	-14.34787	11.27051
3.76832	-14.36984	11.27051
3.77237	-14.34787	11.27051
3.77643	-14.34787	11.27051
3.78049	-14.34787	11.27051
3.78454	-14.34787	11.27051
3.78860	-14.34787	11.27051
3.79267	-14.34787	11.27051
3.79674	-14.34787	11.27051
3.80080	-14.34787	11.27051
3.80486	-14.34787	11.27051
3.80892	-14.34787	11.27051
3.81297	-14.32589	11.27051
3.81703	-14.34787	11.27051
3.82109	-14.34787	11.27051
3.82515	-14.34787	11.27051
3.82920	-14.32589	11.27051
3.83326	-14.34787	11.27051
3.83732	-14.32589	11.27051
3.84137	-14.32589	11.27051
3.84543	-14.32589	11.27051
3.84949	-14.32589	11.27051
3.85354	-14.32589	11.27051
3.85760	-14.34787	11.27051
3.86166	-14.32589	11.27051
3.86595	-14.32589	11.27051
3.87001	-14.32589	11.27051
3.87406	-14.34787	11.27051
3.87812	-14.30392	11.27051
3.88218	-14.32589	11.27051
3.88624	-14.32589	11.27051
3.89029	-14.32589	11.27051
3.89437	-14.32589	11.27051
3.89843	-14.32589	11.27051
3.90249	-14.32589	11.27051
3.90655	-14.30392	11.27051
3.91061	-14.30392	11.27051
3.91468	-14.30392	11.27051
3.91873	-14.30392	11.27051
3.92279	-14.30392	11.27051
3.92685	-14.30392	11.27051
3.93091	-14.30392	11.27051
3.93496	-14.30392	11.27051
3.93902	-14.30392	11.27051
3.94308	-14.30392	11.27051
3.94714	-14.28195	11.27051
3.95119	-14.30392	11.27051
3.95525	-14.30392	11.27051
3.95931	-14.30392	11.27051
3.96336	-14.28195	11.27051
3.96765	-14.30392	11.27051
3.97171	-14.28195	11.27051
3.97577	-14.28195	11.27051
3.97983	-14.28195	11.27051
3.98388	-14.28195	11.27051
3.98794	-14.28195	11.27051
3.99200	-14.28195	11.27051
3.99608	-14.28195	11.27051
4.00014	-14.28195	11.27051
4.00420	-14.28195	11.27051
4.00826	-14.28195	11.27051
4.01232	-14.25998	11.27051
4.01637	-14.25998	11.27051
4.02043	-14.25998	11.27051
4.02449	-14.25998	11.27051
4.02855	-14.25998	11.27051
4.03260	-14.25998	11.27051
4.03666	-14.25998	11.27051
4.04072	-14.25998	11.27051
4.04477	-14.25998	11.27051
4.04883	-14.25998	11.27051
4.05289	-14.25998	11.27051
4.05694	-14.25998	11.27051
4.06100	-14.25998	11.27051
4.06506	-14.23800	11.27051
4.06935	-14.23800	11.27051
4.07341	-14.23800	11.27051
4.07746	-14.23800	11.27051
4.08152	-14.23800	11.27051
4.08558	-14.23800	11.27051
4.08964	-14.23800	11.27051
4.09370	-14.23800	11.27051
4.09777	-14.21603	11.27051
4.10183	-14.21603	11.27051
4.10589	-14.23800	11.27051
4.10995	-14.21603	11.27051
4.11402	-14.21603	11.27051
4.11807	-14.21603	11.27051
4.12213	-14.21603	11.27051
4.12619	-14.21603	11.27051
4.13025	-14.21603	11.27051
4.13431	-14.21603	11.27051
4.13837	-14.21603	11.27051
4.14242	-14.21603	11.27051
4.14648	-14.21603	11.27051
4.15054	-14.19406	11.27051
4.15460	-14.21603	11.27051
4.15866	-14.19406	11.27051
4.16272	-14.19406	11.27051
4.16677	-14.19406	11.27051
4.17105	-14.21603	11.27051
4.17511	-14.19406	11.27051
4.17917	-14.19406	11.27051
4.18323	-14.19406	11.27051
4.18728	-14.19406	11.27051
4.19134	-14.19406	11.27051
4.19540	-14.19406	11.27051
4.19948	-14.19406	11.27051
4.20354	-14.17209	11.27051
4.20759	-14.17209	11.27051
4.21165	-14.17209	11.27051
4.21571	-14.17209	11.27051
4.21977	-14.17209	11.27051
4.22383	-14.17209	11.27051
4.22788	-14.17209	11.27051
4.23194	-14.17209	11.27051
4.23600	-14.17209	11.27051
4.24006	-14.17209	11.27051
4.24411	-14.17209	11.27051
4.24817	-14.17209	11.27051
4.25223	-14.15011	11.27051
4.25628	-14.15011	11.27051
4.26031	-14.15011	11.27051
4.26437	-14.17209	11.27051
4.26843	-14.17209	11.27051
4.27271	-14.15011	11.27051
4.27677	-14.15011	11.27051
4.28082	-14.15011	11.27051
4.28488	-14.15011	11.27051
4.28894	-14.15011	11.27051
4.29300	-14.15011	11.27051
4.29706	-14.15011	11.27051
4.30113	-14.15011	11.27051
4.30519	-14.15011	11.27051
4.30925	-14.12814	11.27051
4.31332	-14.12814	11.27051
4.31738	-14.12814	11.27051
4.32143	-14.15011	11.27051
4.32549	-14.12814	11.27051
4.32955	-14.12814	11.27051
4.33361	-14.12814	11.27051
4.33767	-14.12814	11.27051
4.34172	-14.12814	11.27051
4.34578	-14.12814	11.27051
4.34984	-14.10617	11.27051
4.35390	-14.10617	11.27051
4.35796	-14.10617	11.27051
4.36202	-14.12814	11.27051
4.36607	-14.12814	11.27051
4.37013	-14.10617	11.27051
4.37442	-14.12814	11.27051
4.37847	-14.10617	11.27051
4.38253	-14.10617	11.27051
4.38659	-14.10617	11.27051
4.39064	-14.12814	11.27051
4.39471	-14.10617	11.27051
4.39876	-14.10617	11.27051
4.40284	-14.10617	11.27051
4.40690	-14.10617	11.27051
4.41096	-14.10617	11.27051
4.41502	-14.10617	11.27051
4.41908	-14.08420	11.27051
4.42314	-14.08420	11.27051
4.42719	-14.10617	11.27051
4.43125	-14.10617	11.27051
4.43531	-14.10617	11.27051
4.43936	-14.08420	11.27051
4.44342	-14.08420	11.27051
4.44748	-14.10617	11.27051
4.45153	-14.08420	11.27051
4.45559	-14.08420	11.27051
4.45965	-14.10617	11.27051
4.46370	-14.08420	11.27051
4.46776	-14.08420	11.27051
4.47182	-14.08420	11.27051
4.47610	-14.08420	11.27051
4.48015	-14.08420	11.27051
4.48421	-14.08420	11.27051
4.48827	-14.06222	11.27051
4.49231	-14.06222	11.27051
4.49637	-14.06222	11.27051
4.50043	-14.08420	11.27051
4.50450	-14.06222	11.27051
4.50857	-14.08420	11.27051
4.51263	-14.08420	11.27051
4.51669	-14.06222	11.27051
4.52075	-14.06222	11.27051
4.52481	-14.08420	11.27051
4.52886	-14.06222	11.27051
4.53292	-14.06222	11.27051
4.53698	-14.06222	11.27051
4.54103	-14.06222	11.27051
4.54509	-14.06222	11.27051
4.54915	-14.06222	11.27051
4.55321	-14.06222	11.27051
4.55726	-14.06222	11.27051
4.56132	-14.06222	11.27051
4.56538	-14.06222	11.27051
4.56943	-14.04025	11.27051
4.57349	-14.04025	11.27051
4.57778	-14.06222	11.27051
4.58184	-14.06222	11.27051
4.58589	-14.04025	11.27051
4.58995	-14.04025	11.27051
4.59401	-14.04025	11.27051
4.59807	-14.06222	11.27051
4.60213	-14.04025	11.27051
4.60620	-14.06222	11.27051
4.61026	-14.04025	11.27051
4.61433	-14.04025	11.27051
4.61838	-14.04025	11.27051
4.62244	-14.04025	11.27051
4.62650	-14.04025	11.27051
4.63056	-14.04025	11.27051
4.63462	-14.04025	11.27051
4.63868	-14.04025	11.27051
4.64274	-14.04025	11.27051
4.64679	-14.04025	11.27051
4.65085	-14.04025	11.27051
4.65491	-14.04025	11.27051
4.65897	-14.04025	11.27051
4.66302	-14.04025	11.27051
4.66717	-14.04025	11.27051
4.67123	-14.04025	11.27051
4.67528	-14.04025	11.27051
4.67957	-14.01828	11.27051
4.68362	-14.01828	11.27051
4.68768	-14.04025	11.27051
4.69174	-14.01828	11.27051
4.69580	-14.04025	11.27051
4.69985	-14.04025	11.27051
4.70391	-14.01828	11.27051
4.70799	-14.01828	11.27051
4.71204	-14.04025	11.27051
4.71610	-14.01828	11.27051
4.72016	-14.01828	11.27051
4.72422	-14.01828	11.27051
4.72828	-14.01828	11.27051
4.73231	-14.01828	11.27051
4.73637	-14.01828	11.27051
4.74043	-14.01828	11.27051
4.74449	-14.01828	11.27051
4.74854	-14.01828	11.27051
4.75260	-14.01828	11.27051
4.75666	-14.01828	11.27051
4.76071	-14.01828	11.27051
4.76477	-14.04025	11.27051
4.76883	-14.04025	11.27051
4.77288	-14.01828	11.27051
4.77694	-14.01828	11.27051
4.78122	-14.01828	11.27051
4.78527	-14.01828	11.27051
4.78933	-13.99631	11.27051
4.79339	-13.99631	11.27051
4.79745	-14.01828	11.27051
4.80150	-14.01828	11.27051
4.80556	-13.99631	11.27051
4.80964	-14.01828	11.27051
4.81370	-14.01828	11.27051
4.81779	-13.99631	11.27051
4.82185	-13.99631	11.27051
4.82590	-13.99631	11.27051
4.82997	-13.99631	11.27051
4.83403	-13.99631	11.27051
4.83809	-13.99631	11.27051
4.84214	-13.99631	11.27051
4.84620	-13.99631	11.27051
4.85026	-13.99631	11.27051
4.85432	-13.99631	11.27051
4.85837	-13.97433	11.27051
4.86243	-13.99631	11.27051
4.86649	-13.99631	11.27051
4.87054	-13.99631	11.27051
4.87460	-13.99631	11.27051
4.87866	-13.99631	11.27051
4.88295	-13.99631	11.27051
4.88700	-13.97433	11.27051
4.89106	-13.99631	11.27051
4.89513	-13.99631	11.27051
4.89919	-13.97433	11.27051
4.90325	-13.97433	11.27051
4.90730	-13.99631	11.27051
4.91138	-13.97433	11.27051
4.91544	-13.99631	11.27051
4.91950	-13.99631	11.27051
4.92356	-13.97433	11.27051
4.92761	-13.97433	11.27051
4.93167	-13.97433	11.27051
4.93573	-13.97433	11.27051
4.93979	-13.97433	11.27051
4.94384	-13.97433	11.27051
4.94790	-13.97433	11.27051
4.95195	-13.97433	11.27051
4.95601	-13.97433	11.27051
4.96006	-13.97433	11.27051
4.96412	-13.97433	11.27051
4.96817	-13.97433	11.27051
4.97223	-13.97433	11.27051
4.97628	-13.97433	11.27051
4.98031	-13.97433	11.27051
4.98457	-13.97433	11.27051
4.98863	-13.97433	11.27051
4.99269	-13.95236	11.27051
4.99674	-13.97433	11.27051
5.00081	-13.97433	11.27051
5.00486	-13.95236	11.27051
5.00892	-13.95236	11.27051
5.01300	-13.95236	11.27051
5.01706	-13.95236	11.27051
5.02112	-13.95236	11.27051
5.02517	-13.95236	11.27051
5.02924	-13.95236	11.27051
5.03330	-13.95236	11.27051
5.03735	-13.95236	11.27051
5.04141	-13.95236	11.27051
5.04547	-13.95236	11.27051
5.04953	-13.95236	11.27051
5.05358	-13.93039	11.27051
5.05764	-13.93039	11.27051
5.06170	-13.93039	11.27051
5.06575	-13.95236	11.27051
5.06981	-13.95236	11.27051
5.07387	-13.93039	11.27051
5.07792	-13.93039	11.27051
5.08198	-13.93039	11.27051
5.08626	-13.93039	11.27051
5.09032	-13.93039	11.27051
5.09437	-13.93039	11.27051
5.09844	-13.93039	11.27051
5.10250	-13.93039	11.27051
5.10655	-13.93039	11.27051
5.11061	-13.93039	11.27051
5.11469	-13.93039	11.27051
5.11875	-13.93039	11.27051
5.12281	-13.90841	11.27051
5.12687	-13.90841	11.27051
5.13093	-13.90841	11.27051
5.13499	-13.90841	11.27051
5.13905	-13.90841	11.27051
5.14311	-13.90841	11.27051
5.14717	-13.90841	11.27051
5.15123	-13.90841	11.27051
5.15529	-13.90841	11.27051
5.15934	-13.90841	11.27051
5.16340	-13.90841	11.27051
5.16746	-13.90841	11.27051
5.17151	-13.90841	11.27051
5.17557	-13.90841	11.27051
5.17962	-13.88644	11.27051
5.18368	-13.88644	11.27051
5.18796	-13.90841	11.27051
5.19202	-13.88644	11.27051
5.19608	-13.88644	11.27051
5.20014	-13.88644	11.27051
5.20420	-13.90841	11.27051
5.20826	-13.88644	11.27051
5.21232	-13.88644	11.27051
5.21640	-13.88644	11.27051
5.22046	-13.88644	11.27051
5.22451	-13.88644	11.27051
5.22857	-13.88644	11.27051
5.23263	-13.88644	11.27051
5.23669	-13.88644	11.27051
5.24074	-13.88644	11.27051
5.24481	-13.88644	11.27051
5.24886	-13.86447	11.27051
5.25292	-13.86447	11.27051
5.25698	-13.88644	11.27051
5.26104	-13.86447	11.27051
5.26509	-13.86447	11.27051
5.26915	-13.86447	11.27051
5.27321	-13.86447	11.27051
5.27726	-13.86447	11.27051
5.28132	-13.86447	11.27051
5.28537	-13.86447	11.27051
5.28966	-13.86447	11.27051
5.29372	-13.84250	11.27051
5.29777	-13.86447	11.27051
5.30183	-13.86447	11.27051
5.30589	-13.86447	11.27051
5.30995	-13.84250	11.27051
5.31401	-13.86447	11.27051
5.31809	-13.84250	11.27051
5.32215	-13.86447	11.27051
5.32644	-13.86447	11.27051
5.33051	-13.86447	11.27051
5.33457	-13.84250	11.27051
5.33862	-13.86447	11.27051
5.34268	-13.84250	11.27051
5.34674	-13.84250	11.27051
5.35080	-13.84250	11.27051
5.35486	-13.84250	11.27051
5.35891	-13.84250	11.27051
5.36297	-13.84250	11.27051
5.36703	-13.84250	11.27051
5.37109	-13.84250	11.27051
5.37514	-13.84250	11.27051
5.37920	-13.84250	11.27051
5.38326	-13.82052	11.27051
5.38731	-13.84250	11.27051
5.39159	-13.84250	11.27051
5.39565	-13.84250	11.27051
5.39971	-13.84250	11.27051
5.40376	-13.84250	11.27051
5.40782	-13.84250	11.27051
5.41188	-13.84250	11.27051
5.41593	-13.84250	11.27051
5.42001	-13.84250	11.27051
5.42407	-13.82052	11.27051
5.42813	-13.82052	11.27051
5.43219	-13.84250	11.27051
5.43625	-13.84250	11.27051
5.44031	-13.84250	11.27051
5.44437	-13.82052	11.27051
5.44842	-13.84250	11.27051
5.45248	-13.82052	11.27051
5.45654	-13.82052	11.27051
5.46059	-13.82052	11.27051
5.46465	-13.84250	11.27051
5.46871	-13.82052	11.27051
5.47276	-13.84250	11.27051
5.47682	-13.84250	11.27051
5.48088	-13.82052	11.27051
5.48493	-13.82052	11.27051
5.48899	-13.84250	11.27051
5.49327	-13.82052	11.27051
5.49733	-13.82052	11.27051
5.50138	-13.84250	11.27051
5.50544	-13.82052	11.27051
5.50950	-13.82052	11.27051
5.51355	-13.82052	11.27051
5.51761	-13.82052	11.27051
5.52169	-13.82052	11.27051
5.52575	-13.82052	11.27051
5.52982	-13.82052	11.27051
5.53388	-13.82052	11.27051
5.53793	-13.82052	11.27051
5.54199	-13.82052	11.27051
5.54605	-13.82052	11.27051
5.55011	-13.82052	11.27051
5.55417	-13.82052	11.27051
5.55822	-13.84250	11.27051
5.56228	-13.82052	11.27051
5.56634	-13.82052	11.27051
5.57039	-13.82052	11.27051
5.57445	-13.82052	11.27051
5.57851	-13.82052	11.27051
5.58257	-13.84250	11.27051
5.58662	-13.84250	11.27051
5.59068	-13.82052	11.27051
5.59497	-13.82052	11.27051
5.59903	-13.82052	11.27051
5.60309	-13.82052	11.27051
5.60715	-13.82052	11.27051
5.61121	-13.82052	11.27051
5.61526	-13.82052	11.27051
5.61932	-13.82052	11.27051
5.62339	-13.82052	11.27051
5.62746	-13.82052	11.27051
5.63152	-13.82052	11.27051
5.63558	-13.82052	11.27051
5.63964	-13.82052	11.27051
5.64369	-13.84250	11.27051
5.64775	-13.84250	11.27051
5.65181	-13.82052	11.27051
5.65587	-13.82052	11.27051
5.65992	-13.82052	11.27051
5.66398	-13.82052	11.27051
5.66804	-13.82052	11.27051
5.67210	-13.82052	11.27051
5.67616	-13.82052	11.27051
5.68022	-13.82052	11.27051
5.68428	-13.82052	11.27051
5.68832	-13.82052	11.27051
5.69237	-13.82052	11.27051
5.69665	-13.82052	11.27051
5.70071	-13.82052	11.27051
5.70477	-13.82052	11.27051
5.70882	-13.82052	11.27051
5.71288	-13.82052	11.27051
5.71694	-13.82052	11.27051
5.72099	-13.84250	11.27051
5.72507	-13.82052	11.27051
5.72914	-13.82052	11.27051
5.73319	-13.84250	11.27051
5.73725	-13.84250	11.27051
5.74131	-13.82052	11.27051
5.74537	-13.84250	11.27051
5.74943	-13.84250	11.27051
5.75348	-13.82052	11.27051
5.75754	-13.82052	11.27051
5.76160	-13.84250	11.27051
5.76566	-13.82052	11.27051
5.76971	-13.84250	11.27051
5.77377	-13.84250	11.27051
5.77783	-13.84250	11.27051
5.78188	-13.82052	11.27051
5.78594	-13.84250	11.27051
5.79000	-13.84250	11.27051
5.79405	-13.84250	11.27051
5.79835	-13.84250	11.27051
5.80240	-13.82052	11.27051
5.80646	-13.84250	11.27051
5.81052	-13.84250	11.27051
5.81458	-13.82052	11.27051
5.81863	-13.84250	11.27051
5.82269	-13.84250	11.27051
5.82677	-13.82052	11.27051
5.83083	-13.84250	11.27051
5.83489	-13.82052	11.27051
5.83895	-13.82052	11.27051
5.84301	-13.82052	11.27051
5.84706	-13.84250	11.27051
5.85112	-13.82052	11.27051
5.85518	-13.84250	11.27051
5.85924	-13.82052	11.27051
5.86330	-13.82052	11.27051
5.86735	-13.82052	11.27051
5.87141	-13.84250	11.27051
5.87547	-13.82052	11.27051
5.87952	-13.82052	11.27051
5.88358	-13.82052	11.27051
5.88764	-13.84250	11.27051
5.89170	-13.82052	11.27051
5.89575	-13.84250	11.27051
5.90004	-13.82052	11.27051
5.90410	-13.84250	11.27051
5.90816	-13.84250	11.27051
5.91222	-13.84250	11.27051
5.91627	-13.82052	11.27051
5.92032	-13.84250	11.27051
5.92437	-13.84250	11.27051
5.92845	-13.82052	11.27051
5.93251	-13.82052	11.27051
5.93657	-13.84250	11.27051
5.94063	-13.84250	11.27051
5.94469	-13.84250	11.27051
5.94874	-13.84250	11.27051
5.95280	-13.84250	11.27051
5.95686	-13.84250	11.27051
5.96091	-13.84250	11.27051
5.96497	-13.82052	11.27051
5.96903	-13.82052	11.27051
5.97309	-13.82052	11.27051
5.97714	-13.84250	11.27051
5.98120	-13.84250	11.27051
5.98526	-13.82052	11.27051
5.98931	-13.84250	11.27051
5.99337	-13.84250	11.27051
5.99743	-13.82052	11.27051
6.00172	-13.82052	11.27051
6.00577	-13.84250	11.27051
6.00983	-13.82052	11.27051
6.01389	-13.82052	11.27051
6.01795	-13.82052	11.27051
6.02200	-13.82052	11.27051
6.02606	-13.82052	11.27051
6.03013	-13.84250	11.27051
6.03419	-13.82052	11.27051
6.03826	-13.82052	11.27051
6.04232	-13.84250	11.27051
6.04638	-13.84250	11.27051
6.05044	-13.82052	11.27051
6.05450	-13.82052	11.27051
6.05855	-13.84250	11.27051
6.06261	-13.82052	11.27051
6.06667	-13.82052	11.27051
6.07073	-13.82052	11.27051
6.07478	-13.82052	11.27051
6.07884	-13.82052	11.27051
6.08291	-13.82052	11.27051
6.08697	-13.82052	11.27051
6.09103	-13.82052	11.27051
6.09508	-13.82052	11.27051
6.09914	-13.82052	11.27051
6.10343	-13.82052	11.27051
6.10748	-13.82052	11.27051
6.11155	-13.82052	11.27051
6.11560	-13.82052	11.27051
6.11966	-13.82052	11.27051
6.12372	-13.82052	11.27051
6.12777	-13.82052	11.27051
6.13185	-13.82052	11.27051
6.13591	-13.82052	11.27051
6.13997	-13.82052	11.27051
6.14402	-13.84250	11.27051
6.14809	-13.82052	11.27051
6.15215	-13.82052	11.27051
6.15621	-13.82052	11.27051
6.16027	-13.82052	11.27051
6.16431	-13.82052	11.27051
6.16837	-13.84250	11.27051
6.17243	-13.82052	11.27051
6.17648	-13.82052	11.27051
6.18054	-13.84250	11.27051
6.18460	-13.84250	11.27051
6.18866	-13.82052	11.27051
6.19271	-13.84250	11.27051
6.19677	-13.82052	11.27051
6.20082	-13.82052	11.27051
6.20511	-13.84250	11.27051
6.20916	-13.84250	11.27051
6.21322	-13.82052	11.27051
6.21728	-13.82052	11.27051
6.22133	-13.84250	11.27051
6.22539	-13.84250	11.27051
6.22945	-13.82052	11.27051
6.23352	-13.84250	11.27051
6.23758	-13.84250	11.27051
6.24164	-13.82052	11.27051
6.24571	-13.84250	11.27051
6.24977	-13.84250	11.27051
6.25382	-13.84250	11.27051
6.25788	-13.84250	11.27051
6.26194	-13.84250	11.27051
6.26600	-13.84250	11.27051
6.27005	-13.84250	11.27051
6.27411	-13.82052	11.27051
6.27817	-13.86447	11.27051
6.28223	-13.84250	11.27051
6.28628	-13.84250	11.27051
6.29034	-13.84250	11.27051
6.29440	-13.84250	11.27051
6.29846	-13.84250	11.27051
6.30251	-13.84250	11.27051
6.30680	-13.84250	11.27051
6.31086	-13.84250	11.27051
6.31492	-13.84250	11.27051
6.31897	-13.86447	11.27051
6.32303	-13.84250	11.27051
6.32709	-13.86447	11.27051
6.33115	-13.84250	11.27051
6.33522	-13.84250	11.27051
6.33928	-13.84250	11.27051
6.34334	-13.84250	11.27051
6.34740	-13.86447	11.27051
6.35146	-13.86447	11.27051
6.35552	-13.86447	11.27051
6.35958	-13.86447	11.27051
6.36363	-13.86447	11.27051
6.36769	-13.86447	11.27051
6.37175	-13.86447	11.27051
6.37581	-13.86447	11.27051
6.37986	-13.86447	11.27051
6.38392	-13.86447	11.27051
6.38798	-13.86447	11.27051
6.39203	-13.86447	11.27051
6.39609	-13.86447	11.27051
6.40015	-13.86447	11.27051
6.40420	-13.86447	11.27051
6.40851	-13.86447	11.27051
6.41257	-13.86447	11.27051
6.41662	-13.86447	11.27051
6.42068	-13.86447	11.27051
6.42474	-13.86447	11.27051
6.42879	-13.86447	11.27051
6.43285	-13.86447	11.27051
6.43693	-13.88644	11.27051
6.44099	-13.88644	11.27051
6.44511	-13.86447	11.27051
6.44917	-13.86447	11.27051
6.45323	-13.88644	11.27051
6.45729	-13.86447	11.27051
6.46134	-13.88644	11.27051
6.46540	-13.88644	11.27051
6.46946	-13.88644	11.27051
6.47351	-13.86447	11.27051
6.47757	-13.88644	11.27051
6.48163	-13.88644	11.27051
6.48569	-13.88644	11.27051
6.48974	-13.88644	11.27051
6.49380	-13.88644	11.27051
6.49786	-13.88644	11.27051
6.50191	-13.88644	11.27051
6.50598	-13.88644	11.27051
6.51027	-13.88644	11.27051
6.51433	-13.88644	11.27051
6.51838	-13.88644	11.27051
6.52244	-13.88644	11.27051
6.52650	-13.88644	11.27051
6.53056	-13.88644	11.27051
6.53461	-13.88644	11.27051
6.53869	-13.88644	11.27051
6.54275	-13.88644	11.27051
6.54681	-13.90841	11.27051
6.55087	-13.90841	11.27051
6.55493	-13.88644	11.27051
6.55898	-13.88644	11.27051
6.56304	-13.90841	11.27051
6.56710	-13.88644	11.27051
6.57116	-13.88644	11.27051
6.57522	-13.90841	11.27051
6.57927	-13.88644	11.27051
6.58333	-13.90841	11.27051
6.58739	-13.90841	11.27051
6.59145	-13.88644	11.27051
6.59550	-13.88644	11.27051
6.59957	-13.90841	11.27051
6.60363	-13.90841	11.27051
6.60769	-13.90841	11.27051
6.61197	-13.90841	11.27051
6.61603	-13.90841	11.27051
6.62008	-13.90841	11.27051
6.62414	-13.90841	11.27051
6.62820	-13.90841	11.27051
6.63225	-13.90841	11.27051
6.63631	-13.90841	11.27051
6.64039	-13.90841	11.27051
6.64445	-13.90841	11.27051
6.64851	-13.90841	11.27051
6.65256	-13.93039	11.27051
6.65662	-13.93039	11.27051
6.66068	-13.90841	11.27051
6.66474	-13.93039	11.27051
6.66880	-13.93039	11.27051
6.67286	-13.93039	11.27051
6.67691	-13.93039	11.27051
6.68097	-13.90841	11.27051
6.68503	-13.93039	11.27051
6.68908	-13.93039	11.27051
6.69314	-13.90841	11.27051
6.69720	-13.90841	11.27051
6.70125	-13.93039	11.27051
6.70531	-13.93039	11.27051
6.70937	-13.93039	11.27051
6.71366	-13.93039	11.27051
6.71772	-13.93039	11.27051
6.72177	-13.93039	11.27051
6.72583	-13.95236	11.27051
6.72989	-13.93039	11.27051
6.73394	-13.95236	11.27051
6.73800	-13.95236	11.27051
6.74207	-13.95236	11.27051
6.74614	-13.93039	11.27051
6.75020	-13.95236	11.27051
6.75426	-13.93039	11.27051
6.75832	-13.95236	11.27051
6.76238	-13.95236	11.27051
6.76644	-13.95236	11.27051
6.77050	-13.93039	11.27051
6.77456	-13.95236	11.27051
6.77861	-13.95236	11.27051
6.78267	-13.95236	11.27051
6.78673	-13.95236	11.27051
6.79079	-13.95236	11.27051
6.79484	-13.95236	11.27051
6.79890	-13.93039	11.27051
6.80296	-13.95236	11.27051
6.80701	-13.95236	11.27051
6.81107	-13.95236	11.27051
6.81535	-13.95236	11.27051
6.81941	-13.95236	11.27051
6.82347	-13.95236	11.27051
6.82753	-13.95236	11.27051
6.83158	-13.95236	11.27051
6.83564	-13.97433	11.27051
6.83969	-13.95236	11.27051
6.84377	-13.95236	11.27051
6.84784	-13.95236	11.27051
6.85190	-13.95236	11.27051
6.85595	-13.95236	11.27051
6.86001	-13.97433	11.27051
6.86407	-13.95236	11.27051
6.86813	-13.95236	11.27051
6.87218	-13.95236	11.27051
6.87624	-13.97433	11.27051
6.88030	-13.95236	11.27051
6.88432	-13.97433	11.27051
6.88837	-13.97433	11.27051
6.89243	-13.97433	11.27051
6.89648	-13.97433	11.27051
6.90054	-13.97433	11.27051
6.90460	-13.95236	11.27051
6.90865	-13.97433	11.27051
6.91271	-13.97433	11.27051
6.91700	-13.97433	11.27051
6.92106	-13.97433	11.27051
6.92512	-13.97433	11.27051
6.92917	-13.97433	11.27051
6.93323	-13.97433	11.27051
6.93729	-13.97433	11.27051
6.94134	-13.97433	11.27051
6.94542	-13.97433	11.27051
6.94948	-13.97433	11.27051
6.95377	-13.97433	11.27051
6.95783	-13.97433	11.27051
6.96190	-13.99631	11.27051
6.96596	-13.97433	11.27051
6.97001	-13.99631	11.27051
6.97407	-13.97433	11.27051
6.97813	-13.97433	11.27051
6.98219	-13.97433	11.27051
6.98624	-13.99631	11.27051
6.99030	-13.99631	11.27051
6.99436	-13.99631	11.27051
6.99841	-13.99631	11.27051
7.00247	-13.99631	11.27051
7.00654	-13.99631	11.27051
7.01059	-13.99631	11.27051
7.01465	-13.99631	11.27051
7.01893	-13.99631	11.27051
7.02298	-13.99631	11.27051
7.02704	-13.99631	11.27051
7.03110	-13.99631	11.27051
7.03515	-13.99631	11.27051
7.03921	-13.99631	11.27051
7.04327	-13.99631	11.27051
7.04734	-13.99631	11.27051
7.05140	-13.99631	11.27051
7.05546	-14.01828	11.27051
7.05952	-13.99631	11.27051
7.06358	-14.01828	11.27051
7.06764	-14.01828	11.27051
7.07170	-14.01828	11.27051
7.07576	-14.01828	11.27051
7.07981	-14.01828	11.27051
7.08387	-14.01828	11.27051
7.08793	-14.01828	11.27051
7.09199	-14.01828	11.27051
7.09604	-14.01828	11.27051
7.10010	-14.01828	11.27051
7.10416	-14.04025	11.27051
7.10821	-14.04025	11.27051
7.11227	-14.01828	11.27051
7.11631	-14.01828	11.27051
7.12060	-14.04025	11.27051
7.12466	-14.01828	11.27051
7.12872	-14.01828	11.27051
7.13277	-14.04025	11.27051
7.13683	-14.04025	11.27051
7.14089	-14.04025	11.27051
7.14494	-14.04025	11.27051
7.14902	-14.04025	11.27051
7.15308	-14.04025	11.27051
7.15714	-14.04025	11.27051
7.16120	-14.04025	11.27051
7.16526	-14.04025	11.27051
7.16932	-14.04025	11.27051
7.17338	-14.06222	11.27051
7.17744	-14.06222	11.27051
7.18150	-14.04025	11.27051
7.18556	-14.06222	11.27051
7.18962	-14.06222	11.27051
7.19367	-14.06222	11.27051
7.19773	-14.06222	11.27051
7.20179	-14.06222	11.27051
7.20585	-14.06222	11.27051
7.20990	-14.06222	11.27051
7.21396	-14.06222	11.27051
7.21802	-14.06222	11.27051
7.22229	-14.06222	11.27051
7.22635	-14.06222	11.27051
7.23041	-14.08420	11.27051
7.23447	-14.08420	11.27051
7.23853	-14.08420	11.27051
7.24259	-14.08420	11.27051
7.24665	-14.08420	11.27051
7.25073	-14.08420	11.27051
7.25479	-14.10617	11.27051
7.25885	-14.10617	11.27051
7.26291	-14.08420	11.27051
7.26697	-14.08420	11.27051
7.27103	-14.08420	11.27051
7.27508	-14.08420	11.27051
7.27915	-14.08420	11.27051
7.28320	-14.10617	11.27051
7.28726	-14.10617	11.27051
7.29132	-14.10617	11.27051
7.29537	-14.10617	11.27051
7.29943	-14.10617	11.27051
7.30349	-14.10617	11.27051
7.30754	-14.10617	11.27051
7.31160	-14.10617	11.27051
7.31566	-14.10617	11.27051
7.31972	-14.12814	11.27051
7.32400	-14.12814	11.27051
7.32806	-14.12814	11.27051
7.33212	-14.12814	11.27051
7.33618	-14.12814	11.27051
7.34024	-14.12814	11.27051
7.34430	-14.12814	11.27051
7.34832	-14.12814	11.27051
7.35240	-14.12814	11.27051
7.35647	-14.12814	11.27051
7.36053	-14.12814	11.27051
7.36474	-14.15011	11.27051
7.36879	-14.15011	11.27051
7.37285	-14.12814	11.27051
7.37691	-14.15011	11.27051
7.38097	-14.15011	11.27051
7.38503	-14.12814	11.27051
7.38908	-14.12814	11.27051
7.39314	-14.15011	11.27051
7.39720	-14.15011	11.27051
7.40125	-14.15011	11.27051
7.40531	-14.15011	11.27051
7.40936	-14.15011	11.27051
7.41342	-14.12814	11.27051
7.41748	-14.15011	11.27051
7.42153	-14.15011	11.27051
7.42581	-14.15011	11.27051
7.42987	-14.15011	11.27051
7.43393	-14.15011	11.27051
7.43799	-14.12814	11.27051
7.44205	-14.15011	11.27051
7.44611	-14.15011	11.27051
7.45016	-14.15011	11.27051
7.45424	-14.15011	11.27051
7.45826	-14.15011	11.27051
7.46248	-14.15011	11.27051
7.46653	-14.15011	11.27051
7.47059	-14.15011	11.27051
7.47465	-14.15011	11.27051
7.47871	-14.15011	11.27051
7.48277	-14.12814	11.27051
7.48683	-14.12814	11.27051
7.49089	-14.15011	11.27051
7.49494	-14.15011	11.27051
7.49900	-14.15011	11.27051
7.50306	-14.15011	11.27051
7.50711	-14.12814	11.27051
7.51117	-14.12814	11.27051
7.51523	-14.12814	11.27051
7.51929	-14.15011	11.27051
7.52334	-14.12814	11.27051
7.52762	-14.15011	11.27051
7.53168	-14.15011	11.27051
7.53574	-14.12814	11.27051
7.53980	-14.12814	11.27051
7.54386	-14.12814	11.27051
7.54792	-14.12814	11.27051
7.55198	-14.12814	11.27051
7.55606	-14.12814	11.27051
7.56012	-14.12814	11.27051
7.56419	-14.12814	11.27051
7.56825	-14.12814	11.27051
7.57230	-14.12814	11.27051
7.57632	-14.12814	11.27051
7.58037	-14.12814	11.27051
7.58443	-14.12814	11.27051
7.58849	-14.10617	11.27051
7.59255	-14.10617	11.27051
7.59660	-14.10617	11.27051
7.60067	-14.10617	11.27051
7.60472	-14.10617	11.27051
7.60878	-14.10617	11.27051
7.61284	-14.10617	11.27051
7.61689	-14.10617	11.27051
7.62096	-14.08420	11.27051
7.62501	-14.08420	11.27051
7.62929	-14.10617	11.27051
7.63335	-14.08420	11.27051
7.63741	-14.10617	11.27051
7.64147	-14.08420	11.27051
7.64552	-14.08420	11.27051
7.64958	-14.08420	11.27051
7.65364	-14.08420	11.27051
7.65772	-14.08420	11.27051
7.66188	-14.06222	11.27051
7.66595	-14.06222	11.27051
7.67001	-14.08420	11.27051
7.67407	-14.06222	11.27051
7.67814	-14.06222	11.27051
7.68219	-14.06222	11.27051
7.68625	-14.06222	11.27051
7.69031	-14.04025	11.27051
7.69437	-14.06222	11.27051
7.69842	-14.04025	11.27051
7.70248	-14.04025	11.27051
7.70654	-14.04025	11.27051
7.71059	-14.04025	11.27051
7.71465	-14.04025	11.27051
7.71870	-14.04025	11.27051
7.72277	-14.01828	11.27051
7.72683	-14.01828	11.27051
7.73111	-14.01828	11.27051
7.73517	-14.01828	11.27051
7.73923	-14.01828	11.27051
7.74329	-14.01828	11.27051
7.74734	-14.01828	11.27051
7.75140	-14.01828	11.27051
7.75546	-14.01828	11.27051
7.75954	-13.99631	11.27051
7.76360	-13.99631	11.27051
7.76766	-13.99631	11.27051
7.77172	-13.99631	11.27051
7.77578	-13.97433	11.27051
7.77983	-13.99631	11.27051
7.78389	-13.97433	11.27051
7.78795	-13.97433	11.27051
7.79200	-13.97433	11.27051
7.79606	-13.97433	11.27051
7.80012	-13.95236	11.27051
7.80417	-13.97433	11.27051
7.80823	-13.95236	11.27051
7.81229	-13.95236	11.27051
7.81632	-13.95236	11.27051
7.82038	-13.95236	11.27051
7.82443	-13.93039	11.27051
7.82849	-13.95236	11.27051
7.83277	-13.93039	11.27051
7.83683	-13.93039	11.27051
7.84089	-13.93039	11.27051
7.84494	-13.93039	11.27051
7.84900	-13.90841	11.27051
7.85306	-13.93039	11.27051
7.85712	-13.90841	11.27051
7.86120	-13.90841	11.27051
7.86526	-13.90841	11.27051
7.86932	-13.90841	11.27051
7.87338	-13.88644	11.27051
7.87743	-13.88644	11.27051
7.88149	-13.88644	11.27051
7.88555	-13.88644	11.27051
7.88960	-13.88644	11.27051
7.89366	-13.86447	11.27051
7.89772	-13.86447	11.27051
7.90177	-13.86447	11.27051
7.90583	-13.86447	11.27051
7.90989	-13.86447	11.27051
7.91394	-13.86447	11.27051
7.91800	-13.84250	11.27051
7.92206	-13.84250	11.27051
7.92614	-13.84250	11.27051
7.93020	-13.84250	11.27051
7.93451	-13.84250	11.27051
7.93857	-13.82052	11.27051
7.94263	-13.82052	11.27051
7.94668	-13.82052	11.27051
7.95074	-13.82052	11.27051
7.95480	-13.82052	11.27051
7.95886	-13.79855	11.27051
7.96293	-13.79855	11.27051
7.96699	-13.79855	11.27051
7.97105	-13.79855	11.27051
7.97511	-13.79855	11.27051
7.97918	-13.79855	11.27051
7.98323	-13.79855	11.27051
7.98729	-13.77658	11.27051
7.99135	-13.77658	11.27051
7.99541	-13.77658	11.27051
7.99946	-13.77658	11.27051
8.00352	-13.77658	11.27051
8.00758	-13.75461	11.27051
8.01164	-13.75461	11.27051
8.01570	-13.75461	11.27051
8.01975	-13.75461	11.27051
8.02381	-13.73263	11.27051
8.02788	-13.75461	11.27051
8.03194	-13.75461	11.27051
8.03623	-13.75461	11.27051
8.04029	-13.73263	11.27051
8.04432	-13.73263	11.27051
8.04837	-13.73263	11.27051
8.05243	-13.73263	11.27051
8.05649	-13.73263	11.27051
8.06054	-13.71066	11.27051
8.06462	-13.73263	11.27051
8.06868	-13.71066	11.27051
8.07274	-13.71066	11.27051
8.07680	-13.71066	11.27051
8.08086	-13.71066	11.27051
8.08492	-13.71066	11.27051
8.08898	-13.71066	11.27051
8.09304	-13.68869	11.27051
8.09710	-13.68869	11.27051
8.10115	-13.71066	11.27051
8.10521	-13.68869	11.27051
8.10927	-13.68869	11.27051
8.11332	-13.68869	11.27051
8.11738	-13.68869	11.27051
8.12144	-13.68869	11.27051
8.12549	-13.68869	11.27051
8.12955	-13.68869	11.27051
8.13361	-13.66672	11.27051
8.13790	-13.68869	11.27051
8.14196	-13.68869	11.27051
8.14601	-13.66672	11.27051
8.15007	-13.66672	11.27051
8.15413	-13.68869	11.27051
8.15819	-13.64474	11.27051
8.16224	-13.64474	11.27051
8.16632	-13.66672	11.27051
8.17038	-13.66672	11.27051
8.17444	-13.66672	11.27051
8.17850	-13.66672	11.27051
8.18256	-13.66672	11.27051
8.18662	-13.64474	11.27051
8.19068	-13.66672	11.27051
8.19473	-13.66672	11.27051
8.19879	-13.66672	11.27051
8.20285	-13.66672	11.27051
8.20691	-13.66672	11.27051
8.21096	-13.66672	11.27051
8.21502	-13.66672	11.27051
8.21908	-13.66672	11.27051
8.22313	-13.66672	11.27051
8.22719	-13.66672	11.27051
8.23125	-13.64474	11.27051
8.23531	-13.64474	11.27051
8.23960	-13.66672	11.27051
8.24366	-13.64474	11.27051
8.24772	-13.64474	11.27051
8.25177	-13.66672	11.27051
8.25583	-13.64474	11.27051
8.25989	-13.64474	11.27051
8.26394	-13.66672	11.27051
8.26802	-13.66672	11.27051
8.27208	-13.64474	11.27051
8.27614	-13.66672	11.27051
8.28021	-13.66672	11.27051
8.28427	-13.64474	11.27051
8.28832	-13.66672	11.27051
8.29237	-13.66672	11.27051
8.29643	-13.64474	11.27051
8.30049	-13.66672	11.27051
8.30455	-13.66672	11.27051
8.30860	-13.66672	11.27051
8.31266	-13.66672	11.27051
8.31672	-13.66672	11.27051
8.32078	-13.66672	11.27051
8.32483	-13.66672	11.27051
8.32889	-13.66672	11.27051
8.33295	-13.66672	11.27051
8.33700	-13.68869	11.27051
8.34129	-13.66672	11.27051
8.34535	-13.66672	11.27051
8.34941	-13.68869	11.27051
8.35347	-13.68869	11.27051
8.35752	-13.66672	11.27051
8.36158	-13.68869	11.27051
8.36564	-13.68869	11.27051
8.36972	-13.66672	11.27051
8.37378	-13.68869	11.27051
8.37784	-13.68869	11.27051
8.38190	-13.68869	11.27051
8.38596	-13.68869	11.27051
8.39002	-13.68869	11.27051
8.39407	-13.68869	11.27051
8.39813	-13.68869	11.27051
8.40219	-13.68869	11.27051
8.40625	-13.68869	11.27051
8.41031	-13.71066	11.27051
8.41436	-13.71066	11.27051
8.41842	-13.71066	11.27051
8.42248	-13.68869	11.27051
8.42654	-13.71066	11.27051
8.43059	-13.71066	11.27051
8.43465	-13.71066	11.27051
8.43871	-13.71066	11.27051
8.44300	-13.73263	11.27051
8.44705	-13.71066	11.27051
8.45111	-13.73263	11.27051
8.45517	-13.73263	11.27051
8.45923	-13.73263	11.27051
8.46328	-13.73263	11.27051
8.46734	-13.73263	11.27051
8.47142	-13.75461	11.27051
8.47548	-13.75461	11.27051
8.47955	-13.75461	11.27051
8.48361	-13.75461	11.27051
8.48767	-13.77658	11.27051
8.49173	-13.77658	11.27051
8.49579	-13.77658	11.27051
8.49984	-13.77658	11.27051
8.50390	-13.77658	11.27051
8.50796	-13.77658	11.27051
8.51202	-13.77658	11.27051
8.51607	-13.77658	11.27051
8.52013	-13.79855	11.27051
8.52419	-13.79855	11.27051
8.52825	-13.79855	11.27051
8.53230	-13.79855	11.27051
8.53631	-13.79855	11.27051
8.54037	-13.79855	11.27051
8.54466	-13.82052	11.27051
8.54872	-13.82052	11.27051
8.55277	-13.82052	11.27051
8.55683	-13.82052	11.27051
8.56089	-13.84250	11.27051
8.56494	-13.84250	11.27051
8.56900	-13.84250	11.27051
8.57308	-13.84250	11.27051
8.57714	-13.86447	11.27051
8.58120	-13.84250	11.27051
8.58526	-13.86447	11.27051
8.58931	-13.86447	11.27051
8.59337	-13.86447	11.27051
8.59743	-13.86447	11.27051
8.60149	-13.86447	11.27051
8.60554	-13.88644	11.27051
8.60960	-13.88644	11.27051
8.61366	-13.88644	11.27051
8.61771	-13.88644	11.27051
8.62177	-13.90841	11.27051
8.62583	-13.90841	11.27051
8.62990	-13.90841	11.27051
8.63395	-13.90841	11.27051
8.63801	-13.90841	11.27051
8.64207	-13.90841	11.27051
8.64636	-13.93039	11.27051
8.65042	-13.93039	11.27051
8.65448	-13.93039	11.27051
8.65854	-13.95236	11.27051
8.66259	-13.95236	11.27051
8.66665	-13.95236	11.27051
8.67071	-13.95236	11.27051
8.67478	-13.95236	11.27051
8.67885	-13.95236	11.27051
8.68291	-13.97433	11.27051
8.68697	-13.97433	11.27051
8.69103	-13.97433	11.27051
8.69508	-13.97433	11.27051
8.69914	-13.99631	11.27051
8.70320	-13.97433	11.27051
8.70726	-13.99631	11.27051
8.71131	-14.01828	11.27051
8.71537	-13.99631	11.27051
8.71943	-13.99631	11.27051
8.72348	-14.01828	11.27051
8.72754	-14.01828	11.27051
8.73160	-14.01828	11.27051
8.73566	-14.04025	11.27051
8.73972	-14.04025	11.27051
8.74377	-14.04025	11.27051
8.74806	-14.04025	11.27051
8.75212	-14.04025	11.27051
8.75618	-14.06222	11.27051
8.76024	-14.06222	11.27051
8.76429	-14.06222	11.27051
8.76832	-14.08420	11.27051
8.77237	-14.06222	11.27051
8.77645	-14.08420	11.27051
8.78051	-14.08420	11.27051
8.78457	-14.08420	11.27051
8.78863	-14.08420	11.27051
8.79269	-14.10617	11.27051
8.79674	-14.10617	11.27051
8.80080	-14.10617	11.27051
8.80486	-14.10617	11.27051
8.80891	-14.10617	11.27051
8.81297	-14.10617	11.27051
8.81703	-14.12814	11.27051
8.82108	-14.12814	11.27051
8.82514	-14.12814	11.27051
8.82920	-14.12814	11.27051
8.83325	-14.15011	11.27051
8.83731	-14.12814	11.27051
8.84137	-14.15011	11.27051
8.84543	-14.15011	11.27051
8.84972	-14.15011	11.27051
8.85378	-14.15011	11.27051
8.85783	-14.15011	11.27051
8.86189	-14.17209	11.27051
8.86595	-14.17209	11.27051
8.87001	-14.17209	11.27051
8.87406	-14.17209	11.27051
8.87814	-14.19406	11.27051
8.88220	-14.19406	11.27051
8.88626	-14.19406	11.27051
8.89032	-14.19406	11.27051
8.89439	-14.19406	11.27051
8.89845	-14.19406	11.27051
8.90250	-14.21603	11.27051
8.90656	-14.21603	11.27051
8.91062	-14.21603	11.27051
8.91467	-14.21603	11.27051
8.91873	-14.23800	11.27051
8.92279	-14.21603	11.27051
8.92685	-14.23800	11.27051
8.93090	-14.23800	11.27051
8.93496	-14.23800	11.27051
8.93902	-14.23800	11.27051
8.94307	-14.23800	11.27051
8.94713	-14.23800	11.27051
8.95142	-14.23800	11.27051
8.95548	-14.23800	11.27051
8.95954	-14.25998	11.27051
8.96359	-14.25998	11.27051
8.96765	-14.25998	11.27051
8.97171	-14.25998	11.27051
8.97577	-14.25998	11.27051
8.97984	-14.25998	11.27051
8.98390	-14.25998	11.27051
8.98796	-14.28195	11.27051
8.99202	-14.28195	11.27051
8.99609	-14.28195	11.27051
9.00014	-14.28195	11.27051
9.00420	-14.28195	11.27051
9.00826	-14.28195	11.27051
9.01232	-14.30392	11.27051
9.01637	-14.30392	11.27051
9.02043	-14.30392	11.27051
9.02449	-14.28195	11.27051
9.02855	-14.30392	11.27051
9.03261	-14.30392	11.27051
9.03667	-14.30392	11.27051
9.04073	-14.30392	11.27051
9.04478	-14.30392	11.27051
9.04884	-14.30392	11.27051
9.05313	-14.30392	11.27051
9.05719	-14.30392	11.27051
9.06124	-14.32589	11.27051
9.06530	-14.32589	11.27051
9.06936	-14.32589	11.27051
9.07342	-14.32589	11.27051
9.07747	-14.32589	11.27051
9.08155	-14.32589	11.27051
9.08561	-14.32589	11.27051
9.08972	-14.32589	11.27051
9.09378	-14.32589	11.27051
9.09784	-14.32589	11.27051
9.10190	-14.32589	11.27051
9.10596	-14.32589	11.27051
9.11002	-14.32589	11.27051
9.11407	-14.32589	11.27051
9.11813	-14.32589	11.27051
9.12219	-14.32589	11.27051
9.12625	-14.32589	11.27051
9.13030	-14.32589	11.27051
9.13436	-14.32589	11.27051
9.13842	-14.32589	11.27051
9.14248	-14.32589	11.27051
9.14654	-14.32589	11.27051
9.15059	-14.32589	11.27051
9.15489	-14.32589	11.27051
9.15895	-14.32589	11.27051
9.16300	-14.34787	11.27051
9.16706	-14.32589	11.27051
9.17112	-14.32589	11.27051
9.17518	-14.32589	11.27051
9.17923	-14.32589	11.27051
9.18331	-14.34787	11.27051
9.18737	-14.34787	11.27051
9.19143	-14.34787	11.27051
9.19549	-14.32589	11.27051
9.19955	-14.34787	11.27051
9.20361	-14.34787	11.27051
9.20767	-14.32589	11.27051
9.21173	-14.32589	11.27051
9.21579	-14.32589	11.27051
9.21984	-14.32589	11.27051
9.22390	-14.32589	11.27051
9.22796	-14.32589	11.27051
9.23202	-14.32589	11.27051
9.23608	-14.32589	11.27051
9.24014	-14.32589	11.27051
9.24420	-14.32589	11.27051
9.24825	-14.32589	11.27051
9.25232	-14.32589	11.27051
9.25661	-14.32589	11.27051
9.26067	-14.32589	11.27051
9.26472	-14.30392	11.27051
9.26878	-14.32589	11.27051
9.27284	-14.32589	11.27051
9.27689	-14.32589	11.27051
9.28095	-14.30392	11.27051
9.28503	-14.32589	11.27051
9.28909	-14.32589	11.27051
9.29315	-14.30392	11.27051
9.29721	-14.30392	11.27051
9.30127	-14.30392	11.27051
9.30533	-14.30392	11.27051
9.30939	-14.30392	11.27051
9.31345	-14.30392	11.27051
9.31751	-14.30392	11.27051
9.32156	-14.30392	11.27051
9.32562	-14.30392	11.27051
9.32968	-14.28195	11.27051
9.33374	-14.30392	11.27051
9.33779	-14.30392	11.27051
9.34185	-14.30392	11.27051
9.34591	-14.28195	11.27051
9.34996	-14.28195	11.27051
9.35402	-14.28195	11.27051
9.35831	-14.28195	11.27051
9.36237	-14.28195	11.27051
9.36643	-14.28195	11.27051
9.37049	-14.28195	11.27051
9.37455	-14.25998	11.27051
9.37861	-14.25998	11.27051
9.38267	-14.25998	11.27051
9.38675	-14.25998	11.27051
9.39081	-14.25998	11.27051
9.39488	-14.25998	11.27051
9.39894	-14.23800	11.27051
9.40300	-14.25998	11.27051
9.40706	-14.25998	11.27051
9.41111	-14.23800	11.27051
9.41518	-14.23800	11.27051
9.41923	-14.23800	11.27051
9.42329	-14.23800	11.27051
9.42735	-14.23800	11.27051
9.43141	-14.21603	11.27051
9.43547	-14.23800	11.27051
9.43952	-14.21603	11.27051
9.44358	-14.21603	11.27051
9.44764	-14.21603	11.27051
9.45169	-14.21603	11.27051
9.45575	-14.21603	11.27051
9.46003	-14.21603	11.27051
9.46409	-14.21603	11.27051
9.46814	-14.21603	11.27051
9.47221	-14.21603	11.27051
9.47627	-14.21603	11.27051
9.48032	-14.19406	11.27051
9.48438	-14.21603	11.27051
9.48846	-14.19406	11.27051
9.49252	-14.19406	11.27051
9.49658	-14.19406	11.27051
9.50064	-14.19406	11.27051
9.50470	-14.19406	11.27051
9.50875	-14.19406	11.27051
9.51281	-14.19406	11.27051
9.51687	-14.19406	11.27051
9.52093	-14.19406	11.27051
9.52499	-14.17209	11.27051
9.52904	-14.17209	11.27051
9.53310	-14.17209	11.27051
9.53715	-14.17209	11.27051
9.54121	-14.17209	11.27051
9.54527	-14.17209	11.27051
9.54932	-14.15011	11.27051
9.55338	-14.15011	11.27051
9.55744	-14.17209	11.27051
9.56172	-14.15011	11.27051
9.56578	-14.15011	11.27051
9.56984	-14.17209	11.27051
9.57390	-14.15011	11.27051
9.57795	-14.15011	11.27051
9.58201	-14.15011	11.27051
9.58607	-14.15011	11.27051
9.59015	-14.15011	11.27051
9.59422	-14.15011	11.27051
9.59828	-14.15011	11.27051
9.60234	-14.12814	11.27051
9.60639	-14.12814	11.27051
9.61045	-14.15011	11.27051
9.61451	-14.12814	11.27051
9.61857	-14.12814	11.27051
9.62262	-14.12814	11.27051
9.62668	-14.12814	11.27051
9.63074	-14.12814	11.27051
9.63480	-14.12814	11.27051
9.63886	-14.12814	11.27051
9.64291	-14.12814	11.27051
9.64697	-14.10617	11.27051
9.65103	-14.12814	11.27051
9.65508	-14.12814	11.27051
9.65914	-14.12814	11.27051
9.66342	-14.10617	11.27051
9.66748	-14.10617	11.27051
9.67154	-14.10617	11.27051
9.67560	-14.10617	11.27051
9.67966	-14.10617	11.27051
9.68372	-14.10617	11.27051
9.68778	-14.10617	11.27051
9.69186	-14.10617	11.27051
9.69593	-14.10617	11.27051
9.69999	-14.10617	11.27051
9.70405	-14.10617	11.27051
9.70810	-14.10617	11.27051
9.71216	-14.10617	11.27051
9.71622	-14.10617	11.27051
9.72028	-14.10617	11.27051
9.72432	-14.10617	11.27051
9.72838	-14.10617	11.27051
9.73243	-14.10617	11.27051
9.73649	-14.08420	11.27051
9.74055	-14.08420	11.27051
9.74460	-14.10617	11.27051
9.74866	-14.10617	11.27051
9.75272	-14.08420	11.27051
9.75677	-14.08420	11.27051
9.76083	-14.08420	11.27051
9.76511	-14.08420	11.27051
9.76917	-14.08420	11.27051
9.77323	-14.08420	11.27051
9.77729	-14.08420	11.27051
9.78135	-14.08420	11.27051
9.78541	-14.08420	11.27051
9.78946	-14.08420	11.27051
9.79354	-14.08420	11.27051
9.79761	-14.08420	11.27051
9.80167	-14.08420	11.27051
9.80573	-14.08420	11.27051
9.80978	-14.08420	11.27051
9.81384	-14.08420	11.27051
9.81790	-14.08420	11.27051
9.82196	-14.08420	11.27051
9.82602	-14.08420	11.27051
9.83008	-14.08420	11.27051
9.83413	-14.08420	11.27051
9.83819	-14.06222	11.27051
9.84225	-14.08420	11.27051
9.84631	-14.06222	11.27051
9.85036	-14.06222	11.27051
9.85442	-14.06222	11.27051
9.85848	-14.08420	11.27051
9.86253	-14.08420	11.27051
9.86681	-14.08420	11.27051
9.87087	-14.06222	11.27051
9.87493	-14.08420	11.27051
9.87899	-14.08420	11.27051
9.88305	-14.08420	11.27051
9.88711	-14.06222	11.27051
9.89117	-14.06222	11.27051
9.89525	-14.06222	11.27051
9.89931	-14.06222	11.27051
9.90337	-14.06222	11.27051
9.90742	-14.08420	11.27051
9.91149	-14.06222	11.27051
9.91555	-14.06222	11.27051
9.91960	-14.06222	11.27051
9.92366	-14.06222	11.27051
9.92772	-14.06222	11.27051
9.93178	-14.06222	11.27051
9.93584	-14.06222	11.27051
9.93989	-14.06222	11.27051
9.94395	-14.06222	11.27051
9.94801	-14.06222	11.27051
9.95206	-14.06222	11.27051
9.95612	-14.06222	11.27051
9.96018	-14.06222	11.27051
9.96423	-14.08420	11.27051
9.96852	-14.06222	11.27051
9.97258	-14.06222	11.27051
9.97664	-14.06222	11.27051
9.98070	-14.06222	11.27051
9.98476	-14.06222	11.27051
9.98882	-14.06222	11.27051
9.99287	-14.06222	11.27051
9.99695	-14.06222	11.27051
10.00102	-14.06222	11.27051
10.00507	-14.06222	11.27051
10.00913	-14.06222	11.27051
10.01319	-14.06222	11.27051
10.01725	-14.06222	11.27051
10.02131	-14.06222	11.27051
10.02537	-14.06222	11.27051
10.02943	-14.06222	11.27051
10.03348	-14.06222	11.27051
10.03754	-14.06222	11.27051
10.04160	-14.06222	11.27051
10.04566	-14.06222	11.27051
10.04971	-14.06222	11.27051
10.05377	-14.06222	11.27051
10.05783	-14.06222	11.27051
10.06188	-14.06222	11.27051
10.06594	-14.06222	11.27051
10.07022	-14.06222	11.27051
10.07428	-14.06222	11.27051
10.07834	-14.06222	11.27051
10.08240	-14.06222	11.27051
10.08646	-14.06222	11.27051
10.09052	-14.04025	11.27051
10.09458	-14.04025	11.27051
10.09866	-14.06222	11.27051
10.10272	-14.06222	11.27051
10.10678	-14.06222	11.27051
10.11084	-14.06222	11.27051
10.11490	-14.06222	11.27051
10.11896	-14.06222	11.27051
10.12301	-14.06222	11.27051
10.12708	-14.06222	11.27051
10.13113	-14.04025	11.27051
10.13519	-14.04025	11.27051
10.13925	-14.06222	11.27051
10.14331	-14.06222	11.27051
10.14737	-14.06222	11.27051
10.15143	-14.06222	11.27051
10.15549	-14.06222	11.27051
10.15954	-14.04025	11.27051
10.16360	-14.06222	11.27051
10.16766	-14.06222	11.27051
10.17195	-14.04025	11.27051
10.17601	-14.06222	11.27051
10.18006	-14.06222	11.27051
10.18413	-14.06222	11.27051
10.18818	-14.04025	11.27051
10.19224	-14.06222	11.27051
10.19630	-14.04025	11.27051
10.20034	-14.04025	11.27051
10.20440	-14.04025	11.27051
10.20846	-14.06222	11.27051
10.21252	-14.04025	11.27051
10.21658	-14.06222	11.27051
10.22064	-14.06222	11.27051
10.22469	-14.04025	11.27051
10.22875	-14.04025	11.27051
10.23281	-14.04025	11.27051
10.23687	-14.04025	11.27051
10.24093	-14.04025	11.27051
10.24498	-14.04025	11.27051
10.24904	-14.04025	11.27051
10.25310	-14.04025	11.27051
10.25715	-14.04025	11.27051
10.26121	-14.04025	11.27051
10.26526	-14.04025	11.27051
10.26932	-14.04025	11.27051
10.27361	-14.04025	11.27051
10.27766	-14.04025	11.27051
10.28172	-14.04025	11.27051
10.28578	-14.04025	11.27051
10.28984	-14.04025	11.27051
10.29390	-14.04025	11.27051
10.29795	-14.04025	11.27051
10.30204	-14.04025	11.27051
10.30610	-14.04025	11.27051
10.31038	-14.01828	11.27051
10.31444	-14.04025	11.27051
10.31850	-14.01828	11.27051
10.32255	-14.01828	11.27051
10.32661	-14.01828	11.27051
10.33067	-14.04025	11.27051
10.33473	-14.01828	11.27051
10.33879	-14.01828	11.27051
10.34285	-14.01828	11.27051
10.34690	-14.01828	11.27051
10.35096	-14.01828	11.27051
10.35502	-14.01828	11.27051
10.35907	-13.99631	11.27051
10.36313	-14.01828	11.27051
10.36719	-14.01828	11.27051
10.37124	-14.01828	11.27051
10.37552	-13.99631	11.27051
10.37958	-14.01828	11.27051
10.38364	-14.01828	11.27051
10.38771	-13.99631	11.27051
10.39177	-13.99631	11.27051
10.39582	-13.99631	11.27051
10.39988	-13.99631	11.27051
10.40396	-13.99631	11.27051
10.40802	-13.99631	11.27051
10.41209	-13.99631	11.27051
10.41615	-13.99631	11.27051
10.42020	-13.99631	11.27051
10.42426	-13.99631	11.27051
10.42832	-13.97433	11.27051
10.43238	-13.97433	11.27051
10.43643	-13.97433	11.27051
10.44049	-13.99631	11.27051
10.44455	-13.97433	11.27051
10.44861	-13.97433	11.27051
10.45266	-13.97433	11.27051
10.45672	-13.97433	11.27051
10.46077	-13.97433	11.27051
10.46483	-13.97433	11.27051
10.46889	-13.97433	11.27051
10.47294	-13.95236	11.27051
10.47722	-13.95236	11.27051
10.48128	-13.97433	11.27051
10.48534	-13.95236	11.27051
10.48940	-13.97433	11.27051
10.49346	-13.95236	11.27051
10.49752	-13.95236	11.27051
10.50157	-13.95236	11.27051
10.50566	-13.95236	11.27051
10.50972	-13.95236	11.27051
10.51378	-13.95236	11.27051
10.51784	-13.97433	11.27051
10.52189	-13.97433	11.27051
10.52595	-13.95236	11.27051
10.53001	-13.95236	11.27051
10.53408	-13.95236	11.27051
10.53813	-13.95236	11.27051
10.54219	-13.95236	11.27051
10.54625	-13.95236	11.27051
10.55030	-13.95236	11.27051
10.55436	-13.93039	11.27051
10.55842	-13.95236	11.27051
10.56248	-13.93039	11.27051
10.56653	-13.93039	11.27051
10.57059	-13.95236	11.27051
10.57465	-13.93039	11.27051
10.57892	-13.93039	11.27051
10.58298	-13.95236	11.27051
10.58704	-13.95236	11.27051
10.59110	-13.93039	11.27051
10.59516	-13.93039	11.27051
10.59922	-13.95236	11.27051
10.60327	-13.93039	11.27051
10.60736	-13.93039	11.27051
10.61143	-13.93039	11.27051
10.61548	-13.95236	11.27051
10.61954	-13.93039	11.27051
10.62360	-13.95236	11.27051
10.62766	-13.95236	11.27051
10.63171	-13.93039	11.27051
10.63577	-13.93039	11.27051
10.63983	-13.93039	11.27051
10.64389	-13.93039	11.27051
10.64795	-13.93039	11.27051
10.65201	-13.93039	11.27051
10.65607	-13.95236	11.27051
10.66012	-13.93039	11.27051
10.66418	-13.95236	11.27051
10.66823	-13.95236	11.27051
10.67229	-13.95236	11.27051
10.67632	-13.95236	11.27051
10.68060	-13.95236	11.27051
10.68466	-13.95236	11.27051
10.68872	-13.95236	11.27051
10.69278	-13.95236	11.27051
10.69684	-13.95236	11.27051
10.70090	-13.95236	11.27051
10.70496	-13.95236	11.27051
10.70904	-13.95236	11.27051
10.71310	-13.95236	11.27051
10.71716	-13.95236	11.27051
10.72122	-13.95236	11.27051
10.72528	-13.97433	11.27051
10.72933	-13.95236	11.27051
10.73339	-13.95236	11.27051
10.73745	-13.95236	11.27051
10.74151	-13.95236	11.27051
10.74557	-13.95236	11.27051
10.74962	-13.97433	11.27051
10.75368	-13.97433	11.27051
10.75774	-13.97433	11.27051
10.76179	-13.97433	11.27051
10.76585	-13.97433	11.27051
10.76990	-13.97433	11.27051
10.77396	-13.97433	11.27051
10.77802	-13.97433	11.27051
10.78230	-13.97433	11.27051
10.78636	-13.97433	11.27051
10.79042	-13.97433	11.27051
10.79448	-13.97433	11.27051
10.79854	-13.97433	11.27051
10.80260	-13.99631	11.27051
10.80665	-13.99631	11.27051
10.81073	-13.99631	11.27051
10.81480	-13.99631	11.27051
10.81885	-13.99631	11.27051
10.82291	-13.99631	11.27051
10.82701	-13.99631	11.27051
10.83106	-13.99631	11.27051
10.83512	-13.99631	11.27051
10.83918	-13.99631	11.27051
10.84324	-13.99631	11.27051
10.84730	-13.99631	11.27051
10.85135	-13.99631	11.27051
10.85541	-14.01828	11.27051
10.85947	-14.01828	11.27051
10.86353	-14.01828	11.27051
10.86758	-14.01828	11.27051
10.87164	-14.01828	11.27051
10.87570	-14.01828	11.27051
10.87975	-14.01828	11.27051
10.88403	-14.01828	11.27051
10.88809	-14.04025	11.27051
10.89215	-14.04025	11.27051
10.89621	-14.04025	11.27051
10.90027	-14.04025	11.27051
10.90432	-14.04025	11.27051
10.90837	-14.04025	11.27051
10.91245	-14.04025	11.27051
10.91651	-14.04025	11.27051
10.92057	-14.06222	11.27051
10.92463	-14.04025	11.27051
10.92869	-14.04025	11.27051
10.93275	-14.04025	11.27051
10.93681	-14.06222	11.27051
10.94087	-14.06222	11.27051
10.94492	-14.06222	11.27051
10.94898	-14.06222	11.27051
10.95304	-14.06222	11.27051
10.95709	-14.06222	11.27051
10.96115	-14.08420	11.27051
10.96521	-14.06222	11.27051
10.96926	-14.08420	11.27051
10.97332	-14.08420	11.27051
10.97738	-14.08420	11.27051
10.98143	-14.08420	11.27051
10.98571	-14.08420	11.27051
10.98977	-14.10617	11.27051
10.99383	-14.10617	11.27051
10.99789	-14.08420	11.27051
11.00195	-14.08420	11.27051
11.00601	-14.10617	11.27051
11.01006	-14.10617	11.27051
11.01414	-14.10617	11.27051
11.01821	-14.10617	11.27051
11.02245	-14.10617	11.27051
11.02651	-14.10617	11.27051
11.03057	-14.10617	11.27051
11.03462	-14.10617	11.27051
11.03868	-14.10617	11.27051
11.04274	-14.12814	11.27051
11.04680	-14.12814	11.27051
11.05086	-14.12814	11.27051
11.05491	-14.12814	11.27051
11.05897	-14.12814	11.27051
11.06303	-14.12814	11.27051
11.06709	-14.12814	11.27051
11.07115	-14.12814	11.27051
11.07520	-14.12814	11.27051
11.07926	-14.12814	11.27051
11.08332	-14.12814	11.27051
11.08760	-14.15011	11.27051
11.09166	-14.15011	11.27051
11.09572	-14.15011	11.27051
11.09978	-14.15011	11.27051
11.10384	-14.15011	11.27051
11.10790	-14.15011	11.27051
11.11195	-14.15011	11.27051
11.11604	-14.17209	11.27051
11.12010	-14.17209	11.27051
11.12415	-14.17209	11.27051
11.12822	-14.17209	11.27051
11.13228	-14.17209	11.27051
11.13632	-14.17209	11.27051
11.14037	-14.17209	11.27051
11.14443	-14.19406	11.27051
11.14849	-14.19406	11.27051
11.15255	-14.17209	11.27051
11.15661	-14.19406	11.27051
11.16066	-14.17209	11.27051
11.16472	-14.19406	11.27051
11.16878	-14.19406	11.27051
11.17283	-14.19406	11.27051
11.17689	-14.19406	11.27051
11.18095	-14.19406	11.27051
11.18500	-14.19406	11.27051
11.18929	-14.21603	11.27051
11.19335	-14.21603	11.27051
11.19740	-14.21603	11.27051
11.20146	-14.19406	11.27051
11.20552	-14.21603	11.27051
11.20958	-14.21603	11.27051
11.21364	-14.21603	11.27051
11.21772	-14.21603	11.27051
11.22178	-14.21603	11.27051
11.22584	-14.21603	11.27051
11.22990	-14.21603	11.27051
11.23396	-14.21603	11.27051
11.23801	-14.21603	11.27051
11.24207	-14.21603	11.27051
11.24613	-14.23800	11.27051
11.25019	-14.23800	11.27051
11.25425	-14.23800	11.27051
11.25831	-14.23800	11.27051
11.26236	-14.23800	11.27051
11.26642	-14.23800	11.27051
11.27047	-14.23800	11.27051
11.27453	-14.23800	11.27051
11.27859	-14.25998	11.27051
11.28264	-14.23800	11.27051
11.28670	-14.23800	11.27051
11.29098	-14.25998	11.27051
11.29504	-14.25998	11.27051
11.29910	-14.25998	11.27051
11.30316	-14.23800	11.27051
11.30722	-14.25998	11.27051
11.31128	-14.25998	11.27051
11.31533	-14.25998	11.27051
11.31942	-14.25998	11.27051
11.32348	-14.25998	11.27051
11.32754	-14.25998	11.27051
11.33160	-14.28195	11.27051
11.33566	-14.25998	11.27051
11.33972	-14.25998	11.27051
11.34377	-14.28195	11.27051
11.34783	-14.28195	11.27051
11.35189	-14.25998	11.27051
11.35595	-14.25998	11.27051
11.36001	-14.28195	11.27051
11.36406	-14.28195	11.27051
11.36812	-14.28195	11.27051
11.37218	-14.28195	11.27051
11.37623	-14.28195	11.27051
11.38029	-14.28195	11.27051
11.38431	-14.28195	11.27051
11.38837	-14.28195	11.27051
11.39265	-14.28195	11.27051
11.39671	-14.28195	11.27051
11.40077	-14.28195	11.27051
11.40483	-14.28195	11.27051
11.40889	-14.28195	11.27051
11.41294	-14.28195	11.27051
11.41700	-14.28195	11.27051
11.42108	-14.28195	11.27051
11.42514	-14.28195	11.27051
11.42920	-14.28195	11.27051
11.43326	-14.28195	11.27051
11.43732	-14.28195	11.27051
11.44137	-14.28195	11.27051
11.44543	-14.28195	11.27051
11.44949	-14.28195	11.27051
11.45355	-14.28195	11.27051
11.45761	-14.28195	11.27051
11.46166	-14.28195	11.27051
11.46572	-14.30392	11.27051
11.46978	-14.30392	11.27051
11.47384	-14.28195	11.27051
11.47789	-14.28195	11.27051
11.48195	-14.28195	11.27051
11.48600	-14.28195	11.27051
11.49006	-14.28195	11.27051
11.49434	-14.30392	11.27051
11.49840	-14.30392	11.27051
11.50246	-14.28195	11.27051
11.50652	-14.28195	11.27051
11.51058	-14.30392	11.27051
11.51464	-14.28195	11.27051
11.51869	-14.28195	11.27051
11.52278	-14.30392	11.27051
11.52684	-14.30392	11.27051
11.53090	-14.28195	11.27051
11.53496	-14.28195	11.27051
11.53901	-14.28195	11.27051
11.54307	-14.28195	11.27051
11.54713	-14.28195	11.27051
11.55119	-14.28195	11.27051
11.55525	-14.28195	11.27051
11.55930	-14.28195	11.27051
11.56336	-14.28195	11.27051
11.56742	-14.28195	11.27051
11.57148	-14.28195	11.27051
11.57554	-14.28195	11.27051
11.57960	-14.28195	11.27051
11.58365	-14.28195	11.27051
11.58771	-14.25998	11.27051
11.59177	-14.28195	11.27051
11.59604	-14.28195	11.27051
11.60010	-14.28195	11.27051
11.60416	-14.25998	11.27051
11.60823	-14.25998	11.27051
11.61228	-14.25998	11.27051
11.61632	-14.25998	11.27051
11.62038	-14.25998	11.27051
11.62446	-14.25998	11.27051
11.62852	-14.25998	11.27051
11.63258	-14.25998	11.27051
11.63664	-14.25998	11.27051
11.64070	-14.25998	11.27051
11.64475	-14.25998	11.27051
11.64881	-14.25998	11.27051
11.65287	-14.23800	11.27051
11.65693	-14.25998	11.27051
11.66098	-14.25998	11.27051
11.66504	-14.23800	11.27051
11.66910	-14.23800	11.27051
11.67316	-14.23800	11.27051
11.67721	-14.23800	11.27051
11.68127	-14.23800	11.27051
11.68533	-14.23800	11.27051
11.68938	-14.23800	11.27051
11.69344	-14.23800	11.27051
11.69772	-14.23800	11.27051
11.70178	-14.21603	11.27051
11.70584	-14.21603	11.27051
11.70990	-14.21603	11.27051
11.71396	-14.21603	11.27051
11.71802	-14.21603	11.27051
11.72207	-14.21603	11.27051
11.72615	-14.21603	11.27051
11.73022	-14.21603	11.27051
11.73447	-14.21603	11.27051
11.73853	-14.19406	11.27051
11.74258	-14.19406	11.27051
11.74664	-14.19406	11.27051
11.75070	-14.19406	11.27051
11.75476	-14.19406	11.27051
11.75882	-14.19406	11.27051
11.76288	-14.17209	11.27051
11.76693	-14.17209	11.27051
11.77099	-14.17209	11.27051
11.77505	-14.17209	11.27051
11.77910	-14.17209	11.27051
11.78316	-14.17209	11.27051
11.78722	-14.15011	11.27051
11.79127	-14.15011	11.27051
11.79533	-14.17209	11.27051
11.79961	-14.15011	11.27051
11.80367	-14.15011	11.27051
11.80773	-14.15011	11.27051
11.81179	-14.15011	11.27051
11.81585	-14.15011	11.27051
11.81991	-14.15011	11.27051
11.82396	-14.12814	11.27051
11.82805	-14.12814	11.27051
11.83211	-14.12814	11.27051
11.83616	-14.12814	11.27051
11.84022	-14.12814	11.27051
11.84429	-14.12814	11.27051
11.84832	-14.12814	11.27051
11.85237	-14.12814	11.27051
11.85644	-14.10617	11.27051
11.86049	-14.10617	11.27051
11.86455	-14.10617	11.27051
11.86861	-14.10617	11.27051
11.87267	-14.10617	11.27051
11.87673	-14.10617	11.27051
11.88078	-14.10617	11.27051
11.88484	-14.08420	11.27051
11.88889	-14.08420	11.27051
11.89295	-14.08420	11.27051
11.89701	-14.08420	11.27051
11.90129	-14.08420	11.27051
11.90535	-14.08420	11.27051
11.90940	-14.06222	11.27051
11.91346	-14.06222	11.27051
11.91752	-14.06222	11.27051
11.92158	-14.06222	11.27051
11.92564	-14.04025	11.27051
11.92972	-14.06222	11.27051
11.93378	-14.04025	11.27051
11.93784	-14.04025	11.27051
11.94190	-14.04025	11.27051
11.94596	-14.04025	11.27051
11.95002	-14.04025	11.27051
11.95408	-14.04025	11.27051
11.95814	-14.01828	11.27051
11.96220	-14.01828	11.27051
11.96625	-14.01828	11.27051
11.97031	-14.01828	11.27051
11.97437	-13.99631	11.27051
11.97843	-14.01828	11.27051
11.98249	-14.01828	11.27051
11.98655	-13.99631	11.27051
11.99061	-13.99631	11.27051
11.99466	-13.99631	11.27051
11.99872	-13.97433	11.27051
12.00300	-13.97433	11.27051
12.00706	-13.97433	11.27051
12.01112	-13.97433	11.27051
12.01518	-13.97433	11.27051
12.01924	-13.97433	11.27051
12.02329	-13.97433	11.27051
12.02735	-13.95236	11.27051
12.03144	-13.95236	11.27051
12.03550	-13.97433	11.27051
12.03955	-13.95236	11.27051
12.04362	-13.93039	11.27051
12.04768	-13.93039	11.27051
12.05173	-13.93039	11.27051
12.05579	-13.93039	11.27051
12.05985	-13.93039	11.27051
12.06391	-13.93039	11.27051
12.06797	-13.93039	11.27051
12.07203	-13.90841	11.27051
12.07609	-13.90841	11.27051
12.08015	-13.90841	11.27051
12.08420	-13.90841	11.27051
12.08826	-13.90841	11.27051
12.09231	-13.90841	11.27051
12.09637	-13.88644	11.27051
12.10043	-13.88644	11.27051
12.10470	-13.88644	11.27051
12.10876	-13.86447	11.27051
12.11282	-13.86447	11.27051
12.11688	-13.88644	11.27051
12.12094	-13.86447	11.27051
12.12500	-13.86447	11.27051
12.12905	-13.86447	11.27051
12.13313	-13.86447	11.27051
12.13719	-13.86447	11.27051
12.14125	-13.84250	11.27051
12.14531	-13.84250	11.27051
12.14937	-13.84250	11.27051
12.15343	-13.84250	11.27051
12.15749	-13.82052	11.27051
12.16155	-13.82052	11.27051
12.16561	-13.82052	11.27051
12.16966	-13.82052	11.27051
12.17372	-13.82052	11.27051
12.17778	-13.82052	11.27051
12.18183	-13.79855	11.27051
12.18589	-13.79855	11.27051
12.18995	-13.79855	11.27051
12.19400	-13.79855	11.27051
12.19806	-13.79855	11.27051
12.20212	-13.79855	11.27051
12.20639	-13.77658	11.27051
12.21045	-13.77658	11.27051
12.21451	-13.77658	11.27051
12.21857	-13.77658	11.27051
12.22263	-13.77658	11.27051
12.22669	-13.75461	11.27051
12.23074	-13.75461	11.27051
12.23483	-13.75461	11.27051
12.23889	-13.75461	11.27051
12.24295	-13.75461	11.27051
12.24701	-13.75461	11.27051
12.25106	-13.73263	11.27051
12.25512	-13.73263	11.27051
12.25918	-13.73263	11.27051
12.26324	-13.73263	11.27051
12.26729	-13.73263	11.27051
12.27135	-13.73263	11.27051
12.27541	-13.71066	11.27051
12.27947	-13.71066	11.27051
12.28353	-13.71066	11.27051
12.28758	-13.71066	11.27051
12.29164	-13.71066	11.27051
12.29570	-13.71066	11.27051
12.29975	-13.68869	11.27051
12.30381	-13.68869	11.27051
12.30809	-13.71066	11.27051
12.31215	-13.68869	11.27051
12.31621	-13.68869	11.27051
12.32027	-13.68869	11.27051
12.32432	-13.68869	11.27051
12.32837	-13.68869	11.27051
12.33243	-13.68869	11.27051
12.33651	-13.66672	11.27051
12.34057	-13.66672	11.27051
12.34464	-13.66672	11.27051
12.34869	-13.66672	11.27051
12.35275	-13.66672	11.27051
12.35681	-13.66672	11.27051
12.36086	-13.66672	11.27051
12.36492	-13.66672	11.27051
12.36898	-13.66672	11.27051
12.37304	-13.64474	11.27051
12.37709	-13.64474	11.27051
12.38115	-13.64474	11.27051
12.38521	-13.64474	11.27051
12.38926	-13.64474	11.27051
12.39332	-13.64474	11.27051
12.39738	-13.62277	11.27051
12.40143	-13.64474	11.27051
12.40549	-13.64474	11.27051
12.40977	-13.64474	11.27051
12.41383	-13.62277	11.27051
12.41789	-13.64474	11.27051
12.42195	-13.62277	11.27051
12.42601	-13.62277	11.27051
12.43007	-13.62277	11.27051
12.43412	-13.62277	11.27051
12.43820	-13.60080	11.27051
12.44226	-13.62277	11.27051
12.44638	-13.60080	11.27051
12.45044	-13.62277	11.27051
12.45450	-13.62277	11.27051
12.45855	-13.62277	11.27051
12.46261	-13.60080	11.27051
12.46668	-13.60080	11.27051
12.47073	-13.60080	11.27051
12.47479	-13.60080	11.27051
12.47885	-13.60080	11.27051
12.48291	-13.60080	11.27051
12.48696	-13.60080	11.27051
12.49102	-13.60080	11.27051
12.49508	-13.60080	11.27051
12.49913	-13.60080	11.27051
12.50319	-13.60080	11.27051
12.50725	-13.60080	11.27051
12.51153	-13.60080	11.27051
12.51559	-13.60080	11.27051
12.51965	-13.60080	11.27051
12.52371	-13.57882	11.27051
12.52777	-13.60080	11.27051
12.53183	-13.57882	11.27051
12.53588	-13.57882	11.27051
12.53996	-13.57882	11.27051
12.54403	-13.60080	11.27051
12.54809	-13.57882	11.27051
12.55215	-13.60080	11.27051
12.55620	-13.57882	11.27051
12.56026	-13.57882	11.27051
12.56431	-13.57882	11.27051
12.56837	-13.57882	11.27051
12.57243	-13.57882	11.27051
12.57649	-13.57882	11.27051
12.58054	-13.57882	11.27051
12.58460	-13.55685	11.27051
12.58866	-13.57882	11.27051
12.59271	-13.57882	11.27051
12.59677	-13.57882	11.27051
12.60082	-13.57882	11.27051
12.60488	-13.57882	11.27051
12.60894	-13.57882	11.27051
12.61322	-13.55685	11.27051
12.61728	-13.57882	11.27051
12.62134	-13.57882	11.27051
12.62540	-13.57882	11.27051
12.62946	-13.57882	11.27051
12.63351	-13.55685	11.27051
12.63757	-13.55685	11.27051
12.64165	-13.57882	11.27051
12.64571	-13.57882	11.27051
12.64977	-13.57882	11.27051
12.65383	-13.57882	11.27051
12.65790	-13.55685	11.27051
12.66197	-13.55685	11.27051
12.66603	-13.55685	11.27051
12.67009	-13.55685	11.27051
12.67415	-13.57882	11.27051
12.67821	-13.55685	11.27051
12.68227	-13.55685	11.27051
12.68633	-13.55685	11.27051
12.69039	-13.55685	11.27051
12.69444	-13.55685	11.27051
12.69850	-13.55685	11.27051
12.70256	-13.55685	11.27051
12.70661	-13.55685	11.27051
12.71067	-13.55685	11.27051
12.71495	-13.57882	11.27051
12.71901	-13.55685	11.27051
12.72306	-13.55685	11.27051
12.72713	-13.57882	11.27051
12.73119	-13.55685	11.27051
12.73524	-13.55685	11.27051
12.73930	-13.57882	11.27051
12.74338	-13.57882	11.27051
12.74744	-13.55685	11.27051
12.75150	-13.55685	11.27051
12.75556	-13.55685	11.27051
12.75975	-13.55685	11.27051
12.76381	-13.55685	11.27051
12.76787	-13.55685	11.27051
12.77193	-13.57882	11.27051
12.77598	-13.57882	11.27051
12.78004	-13.57882	11.27051
12.78411	-13.57882	11.27051
12.78816	-13.57882	11.27051
12.79222	-13.57882	11.27051
12.79628	-13.57882	11.27051
12.80032	-13.57882	11.27051
12.80438	-13.57882	11.27051
12.80843	-13.57882	11.27051
12.81249	-13.57882	11.27051
12.81677	-13.55685	11.27051
12.82083	-13.55685	11.27051
12.82489	-13.57882	11.27051
12.82895	-13.57882	11.27051
12.83301	-13.57882	11.27051
12.83707	-13.60080	11.27051
12.84112	-13.60080	11.27051
12.84520	-13.57882	11.27051
12.84927	-13.57882	11.27051
12.85332	-13.57882	11.27051
12.85739	-13.57882	11.27051
12.86145	-13.60080	11.27051
12.86551	-13.60080	11.27051
12.86956	-13.60080	11.27051
12.87363	-13.60080	11.27051
12.87768	-13.60080	11.27051
12.88174	-13.60080	11.27051
12.88580	-13.60080	11.27051
12.88986	-13.62277	11.27051
12.89391	-13.60080	11.27051
12.89797	-13.62277	11.27051
12.90203	-13.60080	11.27051
12.90608	-13.60080	11.27051
12.91014	-13.60080	11.27051
12.91420	-13.62277	11.27051
12.91847	-13.62277	11.27051
12.92253	-13.62277	11.27051
12.92659	-13.62277	11.27051
12.93065	-13.62277	11.27051
12.93471	-13.62277	11.27051
12.93877	-13.62277	11.27051
12.94283	-13.64474	11.27051
12.94691	-13.64474	11.27051
12.95097	-13.64474	11.27051
12.95503	-13.62277	11.27051
12.95909	-13.64474	11.27051
12.96315	-13.64474	11.27051
12.96720	-13.64474	11.27051
12.97126	-13.64474	11.27051
12.97532	-13.66672	11.27051
12.97938	-13.64474	11.27051
12.98344	-13.66672	11.27051
12.98749	-13.66672	11.27051
12.99155	-13.64474	11.27051
12.99561	-13.64474	11.27051
12.99966	-13.68869	11.27051
13.00372	-13.66672	11.27051
13.00778	-13.66672	11.27051
13.01183	-13.66672	11.27051
13.01589	-13.68869	11.27051
13.02017	-13.66672	11.27051
13.02423	-13.68869	11.27051
13.02829	-13.68869	11.27051
13.03232	-13.68869	11.27051
13.03638	-13.68869	11.27051
13.04044	-13.71066	11.27051
13.04449	-13.68869	11.27051
13.04857	-13.71066	11.27051
13.05263	-13.71066	11.27051
13.05669	-13.71066	11.27051
13.06075	-13.71066	11.27051
13.06481	-13.71066	11.27051
13.06887	-13.71066	11.27051
13.07292	-13.73263	11.27051
13.07698	-13.73263	11.27051
13.08104	-13.73263	11.27051
13.08510	-13.71066	11.27051
13.08916	-13.73263	11.27051
13.09321	-13.73263	11.27051
13.09727	-13.73263	11.27051
13.10133	-13.73263	11.27051
13.10538	-13.73263	11.27051
13.10944	-13.75461	11.27051
13.11349	-13.75461	11.27051
13.11755	-13.73263	11.27051
13.12183	-13.73263	11.27051
13.12589	-13.75461	11.27051
13.12995	-13.73263	11.27051
13.13401	-13.75461	11.27051
13.13807	-13.75461	11.27051
13.14212	-13.75461	11.27051
13.14618	-13.75461	11.27051
13.15026	-13.75461	11.27051
13.15433	-13.75461	11.27051
13.15840	-13.77658	11.27051
13.16246	-13.77658	11.27051
13.16652	-13.77658	11.27051
13.17057	-13.75461	11.27051
13.17463	-13.77658	11.27051
13.17869	-13.77658	11.27051
13.18275	-13.77658	11.27051
13.18681	-13.77658	11.27051
13.19087	-13.77658	11.27051
13.19493	-13.79855	11.27051
13.19898	-13.79855	11.27051
13.20304	-13.77658	11.27051
13.20710	-13.77658	11.27051
13.21115	-13.79855	11.27051
13.21521	-13.79855	11.27051
13.21927	-13.79855	11.27051
13.22355	-13.79855	11.27051
13.22761	-13.79855	11.27051
13.23166	-13.79855	11.27051
13.23573	-13.82052	11.27051
13.23979	-13.79855	11.27051
13.24385	-13.82052	11.27051
13.24790	-13.82052	11.27051
13.25198	-13.82052	11.27051
13.25605	-13.82052	11.27051
13.26011	-13.82052	11.27051
13.26417	-13.82052	11.27051
13.26823	-13.82052	11.27051
13.27229	-13.82052	11.27051
13.27631	-13.82052	11.27051
13.28037	-13.82052	11.27051
13.28443	-13.84250	11.27051
13.28849	-13.82052	11.27051
13.29255	-13.82052	11.27051
13.29660	-13.84250	11.27051
13.30066	-13.84250	11.27051
13.30472	-13.82052	11.27051
13.30877	-13.82052	11.27051
13.31283	-13.84250	11.27051
13.31689	-13.84250	11.27051
13.32094	-13.84250	11.27051
13.32523	-13.84250	11.27051
13.32929	-13.84250	11.27051
13.33334	-13.84250	11.27051
13.33741	-13.84250	11.27051
13.34147	-13.84250	11.27051
13.34552	-13.84250	11.27051
13.34958	-13.86447	11.27051
13.35366	-13.86447	11.27051
13.35773	-13.84250	11.27051
13.36178	-13.86447	11.27051
13.36585	-13.84250	11.27051
13.36990	-13.84250	11.27051
13.37396	-13.84250	11.27051
13.37802	-13.84250	11.27051
13.38208	-13.86447	11.27051
13.38614	-13.84250	11.27051
13.39020	-13.84250	11.27051
13.39426	-13.86447	11.27051
13.39831	-13.86447	11.27051
13.40237	-13.84250	11.27051
13.40643	-13.86447	11.27051
13.41048	-13.86447	11.27051
13.41454	-13.86447	11.27051
13.41860	-13.86447	11.27051
13.42265	-13.86447	11.27051
13.42693	-13.84250	11.27051
13.43099	-13.86447	11.27051
13.43505	-13.86447	11.27051
13.43911	-13.84250	11.27051
13.44317	-13.84250	11.27051
13.44723	-13.88644	11.27051
13.45128	-13.86447	11.27051
13.45537	-13.86447	11.27051
13.45946	-13.86447	11.27051
13.46352	-13.86447	11.27051
13.46758	-13.84250	11.27051
13.47163	-13.88644	11.27051
13.47569	-13.86447	11.27051
13.47975	-13.86447	11.27051
13.48381	-13.86447	11.27051
13.48787	-13.86447	11.27051
13.49193	-13.84250	11.27051
13.49598	-13.86447	11.27051
13.50004	-13.86447	11.27051
13.50410	-13.86447	11.27051
13.50815	-13.86447	11.27051
13.51221	-13.86447	11.27051
13.51627	-13.86447	11.27051
13.52031	-13.86447	11.27051
13.52437	-13.84250	11.27051
13.52865	-13.84250	11.27051
13.53271	-13.86447	11.27051
13.53677	-13.84250	11.27051
13.54083	-13.86447	11.27051
13.54489	-13.86447	11.27051
13.54894	-13.86447	11.27051
13.55300	-13.86447	11.27051
13.55708	-13.86447	11.27051
13.56115	-13.86447	11.27051
13.56521	-13.86447	11.27051
13.56927	-13.86447	11.27051
13.57332	-13.86447	11.27051
13.57738	-13.84250	11.27051
13.58143	-13.86447	11.27051
13.58550	-13.86447	11.27051
13.58955	-13.84250	11.27051
13.59361	-13.84250	11.27051
13.59767	-13.86447	11.27051
13.60173	-13.84250	11.27051
13.60578	-13.86447	11.27051
13.60984	-13.86447	11.27051
13.61390	-13.84250	11.27051
13.61795	-13.84250	11.27051
13.62201	-13.86447	11.27051
13.62607	-13.84250	11.27051
13.63035	-13.86447	11.27051
13.63441	-13.86447	11.27051
13.63847	-13.86447	11.27051
13.64253	-13.84250	11.27051
13.64659	-13.84250	11.27051
13.65065	-13.84250	11.27051
13.65471	-13.84250	11.27051
13.65879	-13.86447	11.27051
13.66285	-13.84250	11.27051
13.66691	-13.86447	11.27051
13.67097	-13.84250	11.27051
13.67502	-13.84250	11.27051
13.67908	-13.84250	11.27051
13.68314	-13.86447	11.27051
13.68720	-13.84250	11.27051
13.69126	-13.86447	11.27051
13.69532	-13.84250	11.27051
13.69938	-13.84250	11.27051
13.70344	-13.84250	11.27051
13.70749	-13.86447	11.27051
13.71155	-13.84250	11.27051
13.71561	-13.86447	11.27051
13.71966	-13.84250	11.27051
13.72372	-13.84250	11.27051
13.72778	-13.84250	11.27051
13.73208	-13.86447	11.27051
13.73614	-13.84250	11.27051
13.74020	-13.86447	11.27051
13.74426	-13.86447	11.27051
13.74832	-13.86447	11.27051
13.75238	-13.84250	11.27051
13.75643	-13.86447	11.27051
13.76051	-13.84250	11.27051
13.76458	-13.84250	11.27051
13.76863	-13.86447	11.27051
13.77269	-13.86447	11.27051
13.77675	-13.84250	11.27051
13.78081	-13.86447	11.27051
13.78486	-13.86447	11.27051
13.78892	-13.86447	11.27051
13.79298	-13.86447	11.27051
13.79704	-13.84250	11.27051
13.80110	-13.86447	11.27051
13.80516	-13.86447	11.27051
13.80921	-13.86447	11.27051
13.81327	-13.86447	11.27051
13.81733	-13.86447	11.27051
13.82139	-13.86447	11.27051
13.82544	-13.86447	11.27051
13.82950	-13.86447	11.27051
13.83381	-13.86447	11.27051
13.83787	-13.86447	11.27051
13.84192	-13.86447	11.27051
13.84599	-13.86447	11.27051
13.85005	-13.86447	11.27051
13.85410	-13.88644	11.27051
13.85816	-13.86447	11.27051
13.86224	-13.86447	11.27051
13.86630	-13.88644	11.27051
13.87037	-13.88644	11.27051
13.87443	-13.86447	11.27051
13.87849	-13.86447	11.27051
13.88254	-13.86447	11.27051
13.88660	-13.86447	11.27051
13.89066	-13.88644	11.27051
13.89472	-13.88644	11.27051
13.89878	-13.86447	11.27051
13.90284	-13.88644	11.27051
13.90689	-13.88644	11.27051
13.91095	-13.88644	11.27051
13.91501	-13.86447	11.27051
13.91906	-13.88644	11.27051
13.92312	-13.88644	11.27051
13.92718	-13.88644	11.27051
13.93124	-13.88644	11.27051
13.93554	-13.88644	11.27051
13.93960	-13.88644	11.27051
13.94366	-13.88644	11.27051
13.94772	-13.88644	11.27051
13.95178	-13.90841	11.27051
13.95584	-13.90841	11.27051
13.95990	-13.90841	11.27051
13.96398	-13.90841	11.27051
13.96804	-13.88644	11.27051
13.97210	-13.90841	11.27051
13.97616	-13.90841	11.27051
13.98022	-13.90841	11.27051
13.98427	-13.90841	11.27051
13.98832	-13.90841	11.27051
13.99238	-13.90841	11.27051
13.99644	-13.90841	11.27051
14.00049	-13.90841	11.27051
14.00455	-13.93039	11.27051
14.00861	-13.90841	11.27051
14.01267	-13.90841	11.27051
14.01672	-13.93039	11.27051
14.02078	-13.90841	11.27051
14.02484	-13.90841	11.27051
14.02889	-13.93039	11.27051
14.03295	-13.93039	11.27051
14.03725	-13.93039	11.27051
14.04131	-13.93039	11.27051
14.04537	-13.93039	11.27051
14.04944	-13.93039	11.27051
14.05349	-13.95236	11.27051
14.05755	-13.95236	11.27051
14.06161	-13.93039	11.27051
14.06569	-13.93039	11.27051
14.06975	-13.95236	11.27051
14.07381	-13.95236	11.27051
14.07787	-13.95236	11.27051
14.08193	-13.95236	11.27051
14.08598	-13.95236	11.27051
14.09004	-13.95236	11.27051
14.09410	-13.95236	11.27051
14.09816	-13.95236	11.27051
14.10222	-13.95236	11.27051
14.10628	-13.95236	11.27051
14.11034	-13.95236	11.27051
14.11439	-13.97433	11.27051
14.11845	-13.95236	11.27051
14.12251	-13.97433	11.27051
14.12656	-13.97433	11.27051
14.13062	-13.97433	11.27051
14.13468	-13.95236	11.27051
14.13898	-13.97433	11.27051
14.14304	-13.97433	11.27051
14.14710	-13.97433	11.27051
14.15116	-13.97433	11.27051
14.15522	-13.99631	11.27051
14.15928	-13.97433	11.27051
14.16334	-13.99631	11.27051
14.16742	-13.99631	11.27051
14.17148	-13.99631	11.27051
14.17554	-13.99631	11.27051
14.17960	-13.99631	11.27051
14.18366	-13.99631	11.27051
14.18772	-13.99631	11.27051
14.19177	-14.01828	11.27051
14.19584	-14.01828	11.27051
14.19989	-13.99631	11.27051
14.20395	-14.01828	11.27051
14.20801	-13.99631	11.27051
14.21207	-13.99631	11.27051
14.21613	-14.01828	11.27051
14.22018	-14.01828	11.27051
14.22424	-14.01828	11.27051
14.22830	-14.01828	11.27051
14.23232	-14.01828	11.27051
14.23637	-14.01828	11.27051
14.24068	-14.01828	11.27051
14.24474	-14.04025	11.27051
14.24880	-14.04025	11.27051
14.25286	-14.04025	11.27051
14.25692	-14.04025	11.27051
14.26098	-14.04025	11.27051
14.26504	-14.04025	11.27051
14.26912	-14.01828	11.27051
14.27318	-14.04025	11.27051
14.27724	-14.04025	11.27051
14.28130	-14.04025	11.27051
14.28535	-14.04025	11.27051
14.28941	-14.04025	11.27051
14.29347	-14.04025	11.27051
14.29754	-14.06222	11.27051
14.30159	-14.06222	11.27051
14.30565	-14.06222	11.27051
14.30971	-14.04025	11.27051
14.31377	-14.06222	11.27051
14.31782	-14.06222	11.27051
14.32188	-14.06222	11.27051
14.32594	-14.06222	11.27051
14.32999	-14.08420	11.27051
14.33405	-14.06222	11.27051
14.33811	-14.08420	11.27051
14.34241	-14.08420	11.27051
14.34647	-14.08420	11.27051
14.35053	-14.08420	11.27051
14.35459	-14.08420	11.27051
14.35865	-14.08420	11.27051
14.36271	-14.08420	11.27051
14.36677	-14.08420	11.27051
14.37085	-14.08420	11.27051
14.37491	-14.10617	11.27051
14.37897	-14.10617	11.27051
14.38303	-14.10617	11.27051
14.38708	-14.10617	11.27051
14.39114	-14.08420	11.27051
14.39520	-14.10617	11.27051
14.39926	-14.10617	11.27051
14.40332	-14.10617	11.27051
14.40738	-14.10617	11.27051
14.41144	-14.12814	11.27051
14.41549	-14.12814	11.27051
14.41955	-14.10617	11.27051
14.42361	-14.12814	11.27051
14.42766	-14.12814	11.27051
14.43172	-14.12814	11.27051
14.43578	-14.12814	11.27051
14.43983	-14.12814	11.27051
14.44414	-14.12814	11.27051
14.44820	-14.15011	11.27051
14.45226	-14.15011	11.27051
14.45632	-14.12814	11.27051
14.46038	-14.15011	11.27051
14.46444	-14.15011	11.27051
14.46850	-14.12814	11.27051
14.47258	-14.15011	11.27051
14.47664	-14.15011	11.27051
14.48070	-14.15011	11.27051
14.48476	-14.15011	11.27051
14.48881	-14.15011	11.27051
14.49287	-14.17209	11.27051
14.49693	-14.17209	11.27051
14.50099	-14.17209	11.27051
14.50505	-14.17209	11.27051
14.50911	-14.17209	11.27051
14.51316	-14.17209	11.27051
14.51722	-14.17209	11.27051
14.52128	-14.17209	11.27051
14.52534	-14.17209	11.27051
14.52939	-14.17209	11.27051
14.53345	-14.19406	11.27051
14.53751	-14.19406	11.27051
14.54157	-14.17209	11.27051
14.54587	-14.19406	11.27051
14.54993	-14.19406	11.27051
14.55399	-14.19406	11.27051
14.55805	-14.19406	11.27051
14.56211	-14.21603	11.27051
14.56617	-14.19406	11.27051
14.57022	-14.21603	11.27051
14.57431	-14.21603	11.27051
14.57837	-14.21603	11.27051
14.58243	-14.21603	11.27051
14.58648	-14.21603	11.27051
14.59054	-14.21603	11.27051
14.59460	-14.21603	11.27051
14.59866	-14.21603	11.27051
14.60272	-14.23800	11.27051
14.60678	-14.23800	11.27051
14.61083	-14.23800	11.27051
14.61489	-14.23800	11.27051
14.61895	-14.23800	11.27051
14.62301	-14.23800	11.27051
14.62706	-14.25998	11.27051
14.63112	-14.25998	11.27051
14.63518	-14.25998	11.27051
14.63923	-14.25998	11.27051
14.64329	-14.25998	11.27051
14.64759	-14.25998	11.27051
14.65165	-14.25998	11.27051
14.65571	-14.28195	11.27051
14.65978	-14.28195	11.27051
14.66384	-14.28195	11.27051
14.66790	-14.28195	11.27051
14.67196	-14.30392	11.27051
14.67604	-14.28195	11.27051
14.68011	-14.30392	11.27051
14.68417	-14.30392	11.27051
14.68822	-14.30392	11.27051
14.69228	-14.30392	11.27051
14.69632	-14.32589	11.27051
14.70038	-14.32589	11.27051
14.70444	-14.32589	11.27051
14.70850	-14.32589	11.27051
14.71256	-14.32589	11.27051
14.71661	-14.32589	11.27051
14.72067	-14.34787	11.27051
14.72473	-14.34787	11.27051
14.72879	-14.34787	11.27051
14.73284	-14.34787	11.27051
14.73690	-14.36984	11.27051
14.74096	-14.36984	11.27051
14.74501	-14.36984	11.27051
14.74932	-14.39181	11.27051
14.75338	-14.39181	11.27051
14.75744	-14.36984	11.27051
14.76150	-14.39181	11.27051
14.76556	-14.39181	11.27051
14.76962	-14.39181	11.27051
14.77368	-14.39181	11.27051
14.77775	-14.39181	11.27051
14.78182	-14.41379	11.27051
14.78588	-14.41379	11.27051
14.78994	-14.43576	11.27051
14.79400	-14.41379	11.27051
14.79805	-14.41379	11.27051
14.80212	-14.43576	11.27051
14.80618	-14.45773	11.27051
14.81024	-14.43576	11.27051
14.81430	-14.45773	11.27051
14.81836	-14.45773	11.27051
14.82241	-14.45773	11.27051
14.82647	-14.45773	11.27051
14.83053	-14.47970	11.27051
14.83459	-14.47970	11.27051
14.83864	-14.47970	11.27051
14.84270	-14.47970	11.27051
14.84676	-14.47970	11.27051
14.85106	-14.50168	11.27051
14.85512	-14.50168	11.27051
14.85917	-14.50168	11.27051
14.86324	-14.50168	11.27051
14.86730	-14.50168	11.27051
14.87135	-14.52365	11.27051
14.87541	-14.52365	11.27051
14.87949	-14.52365	11.27051
14.88356	-14.52365	11.27051
14.88762	-14.54562	11.27051
14.89167	-14.54562	11.27051
14.89573	-14.54562	11.27051
14.89979	-14.56759	11.27051
14.90385	-14.56759	11.27051
14.90791	-14.56759	11.27051
14.91197	-14.56759	11.27051
14.91603	-14.56759	11.27051
14.92009	-14.56759	11.27051
14.92414	-14.56759	11.27051
14.92820	-14.58957	11.27051
14.93226	-14.58957	11.27051
14.93632	-14.61154	11.27051
14.94038	-14.61154	11.27051
14.94443	-14.61154	11.27051
14.94849	-14.61154	11.27051
14.95279	-14.63351	11.27051
14.95685	-14.63351	11.27051
14.96091	-14.63351	11.27051
14.96497	-14.63351	11.27051
14.96903	-14.63351	11.27051
14.97309	-14.65548	11.27051
14.97715	-14.65548	11.27051
14.98123	-14.65548	11.27051
14.98529	-14.65548	11.27051
14.98935	-14.65548	11.27051
14.99340	-14.67746	11.27051
14.99746	-14.67746	11.27051
15.00218	-14.67746	4.78582
15.00624	-14.69943	4.78582
15.01033	-14.69943	4.78582
15.01440	-14.69943	4.78582
15.01846	-14.69943	4.78582
15.02251	-14.72140	4.78582
15.02657	-14.72140	4.78582
15.03063	-14.72140	4.78582
15.03469	-14.74338	4.78582
15.03874	-14.74338	4.78582
15.04280	-14.74338	4.78582
15.04686	-14.74338	4.78582
15.05092	-14.74338	4.78582
15.05498	-14.74338	4.78582
15.05903	-14.74338	4.78582
15.06309	-14.76535	4.78582
15.06715	-14.76535	4.78582
15.07121	-14.76535	4.78582
15.07526	-14.76535	4.78582
15.07932	-14.76535	4.78582
15.08338	-14.76535	4.78582
15.08743	-14.78732	4.78582
15.09149	-14.78732	4.78582
15.09555	-14.78732	4.78582
15.09961	-14.76535	4.78582
15.10389	-14.76535	4.78582
15.10795	-14.78732	4.78582
15.11201	-14.76535	4.78582
15.11608	-14.76535	4.78582
15.12014	-14.76535	4.78582
15.12420	-14.76535	4.78582
15.12825	-14.76535	4.78582
15.13234	-14.76535	4.78582
15.13641	-14.76535	4.78582
15.14047	-14.76535	4.78582
15.14453	-14.76535	4.78582
15.14859	-14.76535	4.78582
15.15264	-14.76535	4.78582
15.15670	-14.74338	4.78582
15.16076	-14.74338	4.78582
15.16482	-14.74338	4.78582
15.16888	-14.72140	4.78582
15.17294	-14.72140	4.78582
15.17700	-14.72140	4.78582
15.18105	-14.69943	4.78582
15.18511	-14.69943	4.78582
15.18917	-14.69943	4.78582
15.19322	-14.67746	4.78582
15.19728	-14.65548	4.78582
15.20134	-14.65548	4.78582
15.20564	-14.63351	4.78582
15.20970	-14.63351	4.78582
15.21376	-14.63351	4.78582
15.21782	-14.61154	4.78582
15.22188	-14.58957	4.78582
15.22594	-14.58957	4.78582
15.23000	-14.58957	4.78582
15.23408	-14.54562	4.78582
15.23814	-14.54562	4.78582
15.24220	-14.52365	4.78582
15.24626	-14.50168	4.78582
15.25032	-14.50168	4.78582
15.25437	-14.47970	4.78582
15.25843	-14.45773	4.78582
15.26249	-14.43576	4.78582
15.26655	-14.41379	4.78582
15.27061	-14.41379	4.78582
15.27467	-14.39181	4.78582
15.27872	-14.34787	4.78582
15.28278	-14.32589	4.78582
15.28684	-14.30392	4.78582
15.29089	-14.28195	4.78582
15.29495	-14.28195	4.78582
15.29901	-14.25998	4.78582
15.30306	-14.21603	4.78582
15.30737	-14.19406	4.78582
15.31143	-14.15011	4.78582
15.31549	-14.15011	4.78582
15.31956	-14.12814	4.78582
15.32362	-14.08420	4.78582
15.32768	-14.06222	4.78582
15.33174	-14.01828	4.78582
15.33582	-14.01828	4.78582
15.33988	-13.99631	4.78582
15.34394	-13.95236	4.78582
15.34800	-13.90841	4.78582
15.35206	-13.88644	4.78582
15.35611	-13.88644	4.78582
15.36017	-13.84250	4.78582
15.36423	-13.79855	4.78582
15.36829	-13.75461	4.78582
15.37232	-13.73263	4.78582
15.37637	-13.73263	4.78582
15.38043	-13.68869	4.78582
15.38449	-13.64474	4.78582
15.38855	-13.60080	4.78582
15.39260	-13.55685	4.78582
15.39666	-13.55685	4.78582
15.40072	-13.51291	4.78582
15.40477	-13.46896	4.78582
15.40908	-13.42502	4.78582
15.41314	-13.38107	4.78582
15.41719	-13.33713	4.78582
15.42126	-13.33713	4.78582
15.42532	-13.29318	4.78582
15.42938	-13.24923	4.78582
15.43343	-13.20529	4.78582
15.43751	-13.13937	4.78582
15.44158	-13.13937	4.78582
15.44563	-13.09543	4.78582
15.44969	-13.05148	4.78582
15.45375	-12.98556	4.78582
15.45781	-12.96359	4.78582
15.46186	-12.89767	4.78582
15.46593	-12.89767	4.78582
15.46998	-12.85373	4.78582
15.47404	-12.78781	4.78582
15.47810	-12.74386	4.78582
15.48216	-12.67795	4.78582
15.48621	-12.67795	4.78582
15.49027	-12.63400	4.78582
15.49433	-12.56808	4.78582
15.49838	-12.52414	4.78582
15.50244	-12.45822	4.78582
15.50650	-12.45822	4.78582
15.51080	-12.41427	4.78582
15.51486	-12.34836	4.78582
15.51892	-12.30441	4.78582
15.52299	-12.23849	4.78582
15.52705	-12.17257	4.78582
15.53110	-12.17257	4.78582
15.53516	-12.10666	4.78582
15.53924	-12.06271	4.78582
15.54330	-11.99679	4.78582
15.54736	-11.95285	4.78582
15.55142	-11.95285	4.78582
15.55548	-11.88693	4.78582
15.55953	-11.82101	4.78582
15.56359	-11.75509	4.78582
15.56765	-11.68918	4.78582
15.57171	-11.68918	4.78582
15.57577	-11.62326	4.78582
15.57983	-11.55734	4.78582
15.58389	-11.49142	4.78582
15.58794	-11.42550	4.78582
15.59200	-11.42550	4.78582
15.59606	-11.35959	4.78582
15.60012	-11.29367	4.78582
15.60417	-11.22775	4.78582
15.60823	-11.16183	4.78582
15.61254	-11.16183	4.78582
15.61660	-11.09591	4.78582
15.62066	-11.03000	4.78582
15.62472	-10.94211	4.78582
15.62878	-10.89816	4.78582
15.63284	-10.83224	4.78582
15.63690	-10.83224	4.78582
15.64098	-10.74435	4.78582
15.64504	-10.67843	4.78582
15.64910	-10.61252	4.78582
15.65316	-10.54660	4.78582
15.65722	-10.54660	4.78582
15.66127	-10.45871	4.78582
15.66533	-10.39279	4.78582
15.66939	-10.34884	4.78582
15.67345	-10.26095	4.78582
15.67751	-10.26095	4.78582
15.68157	-10.19504	4.78582
15.68563	-10.12912	4.78582
15.68968	-10.06320	4.78582
15.69374	-9.97531	4.78582
15.69780	-9.97531	4.78582
15.70185	-9.90939	4.78582
15.70591	-9.84347	4.78582
15.70997	-9.75558	4.78582
15.71428	-9.68966	4.78582
15.71834	-9.62375	4.78582
15.72240	-9.62375	4.78582
15.72646	-9.53586	4.78582
15.73052	-9.46994	4.78582
15.73458	-9.40402	4.78582
15.73864	-9.31613	4.78582
15.74272	-9.31613	4.78582
15.74678	-9.25021	4.78582
15.75084	-9.18429	4.78582
15.75490	-9.09640	4.78582
15.75895	-9.03048	4.78582
15.76301	-8.94259	4.78582
15.76707	-8.94259	4.78582
15.77113	-8.87668	4.78582
15.77519	-8.81076	4.78582
15.77925	-8.72287	4.78582
15.78330	-8.65695	4.78582
15.78736	-8.65695	4.78582
15.79142	-8.56906	4.78582
15.79548	-8.50314	4.78582
15.79953	-8.43722	4.78582
15.80359	-8.37131	4.78582
15.80765	-8.28341	4.78582
15.81170	-8.28341	4.78582
15.81601	-8.19552	4.78582
15.82007	-8.12961	4.78582
15.82413	-8.06369	4.78582
15.82819	-7.97580	4.78582
15.83225	-7.97580	4.78582
15.83631	-7.88791	4.78582
15.84037	-7.82199	4.78582
15.84445	-7.75607	4.78582
15.84851	-7.75607	4.78582
15.85257	-7.66818	4.78582
15.85663	-7.58029	4.78582
15.86069	-7.51437	4.78582
15.86474	-7.44845	4.78582
15.86880	-7.44845	4.78582
15.87286	-7.36056	4.78582
15.87692	-7.29464	4.78582
15.88098	-7.20675	4.78582
15.88504	-7.14084	4.78582
15.88909	-7.07492	4.78582
15.89315	-7.07492	4.78582
15.89721	-7.00900	4.78582
15.90127	-6.92111	4.78582
15.90532	-6.85519	4.78582
15.90938	-6.76730	4.78582
15.91344	-6.76730	4.78582
15.91775	-6.70138	4.78582
15.92181	-6.63547	4.78582
15.92587	-6.56955	4.78582
15.92993	-6.48166	4.78582
15.93399	-6.41574	4.78582
15.93805	-6.41574	4.78582
15.94210	-6.34982	4.78582
15.94618	-6.26193	4.78582
15.95025	-6.19601	4.78582
15.95431	-6.10812	4.78582
15.95837	-6.10812	4.78582
15.96243	-6.04220	4.78582
15.96648	-5.97629	4.78582
15.97054	-5.91037	4.78582
15.97460	-5.84445	4.78582
15.97866	-5.75656	4.78582
15.98272	-5.75656	4.78582
15.98678	-5.69064	4.78582
15.99084	-5.62472	4.78582
15.99490	-5.55881	4.78582
15.99895	-5.55881	4.78582
16.00301	-5.47091	4.78582
16.00707	-5.40500	4.78582
16.01112	-5.36105	4.78582
16.01518	-5.27316	4.78582
16.01947	-5.20724	4.78582
16.02353	-5.20724	4.78582
16.02759	-5.14132	4.78582
16.03165	-5.07541	4.78582
16.03571	-5.00949	4.78582
16.03977	-4.92160	4.78582
16.04383	-4.92160	4.78582
16.04791	-4.85568	4.78582
16.05197	-4.78976	4.78582
16.05603	-4.74582	4.78582
16.06009	-4.67990	4.78582
16.06415	-4.61398	4.78582
16.06821	-4.61398	4.78582
16.07226	-4.54806	4.78582
16.07632	-4.48214	4.78582
16.08038	-4.41623	4.78582
16.08444	-4.35031	4.78582
16.08850	-4.35031	4.78582
16.09255	-4.28439	4.78582
16.09661	-4.21847	4.78582
16.10067	-4.15256	4.78582
16.10472	-4.08664	4.78582
16.10878	-4.08664	4.78582
16.11284	-4.02072	4.78582
16.11689	-3.95480	4.78582
16.12119	-3.91086	4.78582
16.12525	-3.82297	4.78582
16.12931	-3.82297	4.78582
16.13337	-3.77902	4.78582
16.13743	-3.71310	4.78582
16.14149	-3.66916	4.78582
16.14554	-3.60324	4.78582
16.14963	-3.55929	4.78582
16.15369	-3.55929	4.78582
16.15775	-3.47140	4.78582
16.16182	-3.42746	4.78582
16.16588	-3.38351	4.78582
16.16994	-3.38351	4.78582
16.17400	-3.31759	4.78582
16.17806	-3.25168	4.78582
16.18212	-3.20773	4.78582
16.18618	-3.16379	4.78582
16.19023	-3.11984	4.78582
16.19429	-3.11984	4.78582
16.19835	-3.05392	4.78582
16.20240	-2.98800	4.78582
16.20646	-2.94406	4.78582
16.21052	-2.90011	4.78582
16.21458	-2.90011	4.78582
16.21863	-2.83420	4.78582
16.22292	-2.79025	4.78582
16.22698	-2.74631	4.78582
16.23104	-2.70236	4.78582
16.23510	-2.63644	4.78582
16.23916	-2.63644	4.78582
16.24321	-2.59250	4.78582
16.24727	-2.54855	4.78582
16.25135	-2.50461	4.78582
16.25541	-2.46066	4.78582
16.25947	-2.46066	4.78582
16.26353	-2.39474	4.78582
16.26759	-2.37277	4.78582
16.27165	-2.32882	4.78582
16.27570	-2.28488	4.78582
16.27976	-2.24093	4.78582
16.28382	-2.24093	4.78582
16.28788	-2.19699	4.78582
16.29194	-2.15304	4.78582
16.29600	-2.10910	4.78582
16.30005	-2.10910	4.78582
16.30411	-2.06515	4.78582
16.30817	-2.02121	4.78582
16.31222	-1.99923	4.78582
16.31628	-1.95529	4.78582
16.32032	-1.91134	4.78582
16.32462	-1.91134	4.78582
16.32868	-1.86740	4.78582
16.33274	-1.84543	4.78582
16.33680	-1.80148	4.78582
16.34086	-1.75754	4.78582
16.34492	-1.75754	4.78582
16.34897	-1.73556	4.78582
16.35305	-1.69162	4.78582
16.35712	-1.66964	4.78582
16.36118	-1.62570	4.78582
16.36523	-1.62570	4.78582
16.36929	-1.60373	4.78582
16.37335	-1.55978	4.78582
16.37741	-1.53781	4.78582
16.38147	-1.49386	4.78582
16.38553	-1.49386	4.78582
16.38958	-1.47189	4.78582
16.39364	-1.44992	4.78582
16.39770	-1.42795	4.78582
16.40175	-1.38400	4.78582
16.40581	-1.36203	4.78582
16.40987	-1.36203	4.78582
16.41393	-1.34006	4.78582
16.41798	-1.31808	4.78582
16.42204	-1.29611	4.78582
16.42634	-1.25216	4.78582
16.43040	-1.25216	4.78582
16.43446	-1.23019	4.78582
16.43852	-1.23019	4.78582
16.44258	-1.20822	4.78582
16.44664	-1.18625	4.78582
16.45070	-1.18625	4.78582
16.45478	-1.16427	4.78582
16.45884	-1.14230	4.78582
16.46290	-1.12033	4.78582
16.46696	-1.09836	4.78582
16.47101	-1.09836	4.78582
16.47507	-1.07638	4.78582
16.47913	-1.07638	4.78582
16.48319	-1.05441	4.78582
16.48725	-1.03244	4.78582
16.49131	-1.01047	4.78582
16.49536	-1.01047	4.78582
16.49942	-1.01047	4.78582
16.50348	-0.98849	4.78582
16.50753	-0.98849	4.78582
16.51159	-0.96652	4.78582
16.51565	-0.96652	4.78582
16.51970	-0.96652	4.78582
16.52376	-0.94455	4.78582
16.52807	-0.94455	4.78582
16.53213	-0.92257	4.78582
16.53619	-0.92257	4.78582
16.54025	-0.92257	4.78582
16.54431	-0.90060	4.78582
16.54837	-0.90060	4.78582
16.55243	-0.90060	4.78582
16.55651	-0.87863	4.78582
16.56057	-0.87863	4.78582
16.56463	-0.87863	4.78582
16.56868	-0.90060	4.78582
16.57274	-0.87863	4.78582
16.57680	-0.87863	4.78582
16.58086	-0.87863	4.78582
16.58492	-0.87863	4.78582
16.58898	-0.87863	4.78582
16.59304	-0.87863	4.78582
16.59710	-0.85666	4.78582
16.60115	-0.85666	4.78582
16.60521	-0.85666	4.78582
16.60927	-0.87863	4.78582
16.61332	-0.85666	4.78582
16.61738	-0.85666	4.78582
16.62144	-0.85666	4.78582
16.62550	-0.87863	4.78582
16.62980	-0.87863	4.78582
16.63386	-0.87863	4.78582
16.63792	-0.87863	4.78582
16.64198	-0.87863	4.78582
16.64604	-0.90060	4.78582
16.65010	-0.90060	4.78582
16.65415	-0.90060	4.78582
16.65823	-0.90060	4.78582
16.66230	-0.92257	4.78582
16.66636	-0.92257	4.78582
16.67042	-0.92257	4.78582
16.67448	-0.92257	4.78582
16.67854	-0.94455	4.78582
16.68259	-0.96652	4.78582
16.68666	-0.96652	4.78582
16.69071	-0.96652	4.78582
16.69477	-0.98849	4.78582
16.69883	-0.98849	4.78582
16.70288	-1.01047	4.78582
16.70694	-1.01047	4.78582
16.71100	-1.01047	4.78582
16.71506	-1.03244	4.78582
16.71911	-1.05441	4.78582
16.72317	-1.07638	4.78582
16.72723	-1.07638	4.78582
16.73153	-1.07638	4.78582
16.73559	-1.09836	4.78582
16.73965	-1.12033	4.78582
16.74371	-1.12033	4.78582
16.74777	-1.14230	4.78582
16.75183	-1.16427	4.78582
16.75589	-1.16427	4.78582
16.75997	-1.18625	4.78582
16.76403	-1.20822	4.78582
16.76809	-1.23019	4.78582
16.77215	-1.23019	4.78582
16.77620	-1.25216	4.78582
16.78026	-1.25216	4.78582
16.78431	-1.29611	4.78582
16.78837	-1.31808	4.78582
16.79243	-1.34006	4.78582
16.79649	-1.34006	4.78582
16.80055	-1.36203	4.78582
16.80460	-1.38400	4.78582
16.80866	-1.40597	4.78582
16.81272	-1.42795	4.78582
16.81678	-1.42795	4.78582
16.82083	-1.44992	4.78582
16.82489	-1.49386	4.78582
16.82895	-1.49386	4.78582
16.83325	-1.53781	4.78582
16.83731	-1.55978	4.78582
16.84137	-1.55978	4.78582
16.84543	-1.58175	4.78582
16.84949	-1.62570	4.78582
16.85354	-1.64767	4.78582
16.85760	-1.66964	4.78582
16.86168	-1.66964	4.78582
16.86575	-1.71359	4.78582
16.86980	-1.73556	4.78582
16.87386	-1.77951	4.78582
16.87792	-1.77951	4.78582
16.88198	-1.77951	4.78582
16.88603	-1.82345	4.78582
16.89010	-1.86740	4.78582
16.89415	-1.88937	4.78582
16.89821	-1.88937	4.78582
16.90227	-1.93332	4.78582
16.90633	-1.95529	4.78582
16.91038	-1.99923	4.78582
16.91444	-2.02121	4.78582
16.91850	-2.06515	4.78582
16.92255	-2.06515	4.78582
16.92661	-2.08713	4.78582
16.93067	-2.13107	4.78582
16.93497	-2.17502	4.78582
16.93903	-2.19699	4.78582
16.94309	-2.19699	4.78582
16.94715	-2.24093	4.78582
16.95121	-2.26291	4.78582
16.95527	-2.30685	4.78582
16.95933	-2.32882	4.78582
16.96341	-2.37277	4.78582
16.96747	-2.37277	4.78582
16.97153	-2.41672	4.78582
16.97559	-2.46066	4.78582
16.97964	-2.50461	4.78582
16.98370	-2.52658	4.78582
16.98776	-2.52658	4.78582
16.99182	-2.57052	4.78582
16.99588	-2.59250	4.78582
16.99994	-2.63644	4.78582
17.00400	-2.68039	4.78582
17.00805	-2.72433	4.78582
17.01211	-2.72433	4.78582
17.01617	-2.76828	4.78582
17.02023	-2.79025	4.78582
17.02428	-2.83420	4.78582
17.02831	-2.87814	4.78582
17.03237	-2.87814	4.78582
17.03668	-2.92209	4.78582
17.04074	-2.96603	4.78582
17.04479	-3.00998	4.78582
17.04886	-3.03195	4.78582
17.05291	-3.07589	4.78582
17.05697	-3.07589	4.78582
17.06103	-3.11984	4.78582
17.06511	-3.16379	4.78582
17.06917	-3.20773	4.78582
17.07323	-3.20773	4.78582
17.07729	-3.25168	4.78582
17.08134	-3.29562	4.78582
17.08540	-3.31759	4.78582
17.08946	-3.38351	4.78582
17.09352	-3.42746	4.78582
17.09758	-3.42746	4.78582
17.10164	-3.44943	4.78582
17.10569	-3.49338	4.78582
17.10975	-3.53732	4.78582
17.11381	-3.58127	4.78582
17.11787	-3.58127	4.78582
17.12192	-3.64718	4.78582
17.12598	-3.66916	4.78582
17.13004	-3.71310	4.78582
17.13409	-3.77902	4.78582
17.13840	-3.77902	4.78582
17.14246	-3.82297	4.78582
17.14652	-3.86691	4.78582
17.15058	-3.91086	4.78582
17.15464	-3.95480	4.78582
17.15870	-3.95480	4.78582
17.16276	-3.99875	4.78582
17.16684	-4.04269	4.78582
17.17090	-4.06466	4.78582
17.17496	-4.13058	4.78582
17.17902	-4.17453	4.78582
17.18308	-4.17453	4.78582
17.18713	-4.21847	4.78582
17.19119	-4.26242	4.78582
17.19525	-4.30636	4.78582
17.19931	-4.35031	4.78582
17.20337	-4.35031	4.78582
17.20743	-4.39425	4.78582
17.21148	-4.43820	4.78582
17.21554	-4.48214	4.78582
17.21960	-4.54806	4.78582
17.22366	-4.54806	4.78582
17.22771	-4.57004	4.78582
17.23177	-4.63595	4.78582
17.23583	-4.67990	4.78582
17.24013	-4.72384	4.78582
17.24419	-4.72384	4.78582
17.24825	-4.76779	4.78582
17.25232	-4.78976	4.78582
17.25638	-4.85568	4.78582
17.26044	-4.89963	4.78582
17.26449	-4.94357	4.78582
17.26857	-4.94357	4.78582
17.27264	-4.98752	4.78582
17.27670	-5.03146	4.78582
17.28075	-5.07541	4.78582
17.28481	-5.11935	4.78582
17.28887	-5.16330	4.78582
17.29293	-5.16330	4.78582
17.29699	-5.20724	4.78582
17.30104	-5.25119	4.78582
17.30510	-5.29513	4.78582
17.30916	-5.33908	4.78582
17.31322	-5.33908	4.78582
17.31727	-5.38302	4.78582
17.32133	-5.42697	4.78582
17.32539	-5.47091	4.78582
17.32944	-5.51486	4.78582
17.33350	-5.55881	4.78582
17.33756	-5.55881	4.78582
17.34186	-5.60275	4.78582
17.34592	-5.64670	4.78582
17.34998	-5.71261	4.78582
17.35404	-5.75656	4.78582
17.35810	-5.75656	4.78582
17.36216	-5.80050	4.78582
17.36621	-5.84445	4.78582
17.37029	-5.88839	4.78582
17.37435	-5.88839	4.78582
17.37842	-5.93234	4.78582
17.38248	-5.97629	4.78582
17.38654	-6.02023	4.78582
17.39059	-6.06418	4.78582
17.39465	-6.06418	4.78582
17.39871	-6.10812	4.78582
17.40277	-6.15207	4.78582
17.40683	-6.19601	4.78582
17.41089	-6.23996	4.78582
17.41494	-6.23996	4.78582
17.41900	-6.28390	4.78582
17.42306	-6.30588	4.78582
17.42711	-6.34982	4.78582
17.43117	-6.39377	4.78582
17.43523	-6.43771	4.78582
17.43929	-6.43771	4.78582
17.44358	-6.48166	4.78582
17.44765	-6.52560	4.78582
17.45170	-6.56955	4.78582
17.45577	-6.61349	4.78582
17.45983	-6.63547	4.78582
17.46389	-6.63547	4.78582
17.46794	-6.67941	4.78582
17.47202	-6.72336	4.78582
17.47609	-6.76730	4.78582
17.48015	-6.81125	4.78582
17.48421	-6.81125	4.78582
17.48826	-6.85519	4.78582
17.49232	-6.89914	4.78582
17.49637	-6.92111	4.78582
17.50043	-6.96506	4.78582
17.50449	-7.00900	4.78582
17.50855	-7.00900	4.78582
17.51261	-7.03097	4.78582
17.51667	-7.07492	4.78582
17.52072	-7.11886	4.78582
17.52478	-7.11886	4.78582
17.52884	-7.16281	4.78582
17.53289	-7.18478	4.78582
17.53695	-7.22873	4.78582
17.54101	-7.27267	4.78582
17.54532	-7.29464	4.78582
17.54937	-7.29464	4.78582
17.55343	-7.33859	4.78582
17.55749	-7.38254	4.78582
17.56155	-7.40451	4.78582
17.56561	-7.44845	4.78582
17.56967	-7.44845	4.78582
17.57375	-7.47043	4.78582
17.57781	-7.51437	4.78582
17.58187	-7.55832	4.78582
17.58593	-7.58029	4.78582
17.58999	-7.60226	4.78582
17.59404	-7.60226	4.78582
17.59810	-7.64621	4.78582
17.60216	-7.66818	4.78582
17.60622	-7.71213	4.78582
17.61028	-7.75607	4.78582
17.61434	-7.75607	4.78582
17.61840	-7.77804	4.78582
17.62245	-7.82199	4.78582
17.62651	-7.84396	4.78582
17.63057	-7.88791	4.78582
17.63462	-7.88791	4.78582
17.63868	-7.90988	4.78582
17.64273	-7.93185	4.78582
17.64704	-7.97580	4.78582
17.65110	-7.99777	4.78582
17.65515	-7.99777	4.78582
17.65922	-8.04172	4.78582
17.66328	-8.06369	4.78582
17.66734	-8.08566	4.78582
17.67139	-8.08566	4.78582
17.67548	-8.15158	4.78582
17.67954	-8.15158	4.78582
17.68360	-8.17355	4.78582
17.68766	-8.19552	4.78582
17.69171	-8.23947	4.78582
17.69577	-8.23947	4.78582
17.69983	-8.26144	4.78582
17.70389	-8.28341	4.78582
17.70795	-8.30539	4.78582
17.71201	-8.32736	4.78582
17.71607	-8.34933	4.78582
17.72012	-8.34933	4.78582
17.72418	-8.37131	4.78582
17.72824	-8.39328	4.78582
17.73229	-8.41525	4.78582
17.73632	-8.43722	4.78582
17.74037	-8.43722	4.78582
17.74443	-8.48117	4.78582
17.74873	-8.50314	4.78582
17.75279	-8.50314	4.78582
17.75685	-8.52511	4.78582
17.76091	-8.54709	4.78582
17.76497	-8.54709	4.78582
17.76903	-8.56906	4.78582
17.77309	-8.59103	4.78582
17.77717	-8.61300	4.78582
17.78123	-8.63498	4.78582
17.78528	-8.63498	4.78582
17.78934	-8.65695	4.78582
17.79340	-8.67892	4.78582
17.79746	-8.67892	4.78582
17.80151	-8.70089	4.78582
17.80558	-8.72287	4.78582
17.80963	-8.72287	4.78582
17.81369	-8.74484	4.78582
17.81775	-8.74484	4.78582
17.82181	-8.76681	4.78582
17.82586	-8.76681	4.78582
17.82992	-8.78879	4.78582
17.83398	-8.78879	4.78582
17.83804	-8.81076	4.78582
17.84209	-8.83273	4.78582
17.84615	-8.83273	4.78582
17.85046	-8.83273	4.78582
17.85451	-8.85470	4.78582
17.85857	-8.85470	4.78582
17.86264	-8.87668	4.78582
17.86670	-8.89865	4.78582
17.87075	-8.89865	4.78582
17.87481	-8.89865	4.78582
17.87889	-8.92062	4.78582
17.88296	-8.92062	4.78582
17.88701	-8.92062	4.78582
17.89107	-8.92062	4.78582
17.89513	-8.94259	4.78582
17.89919	-8.94259	4.78582
17.90324	-8.96457	4.78582
17.90731	-8.96457	4.78582
17.91136	-8.96457	4.78582
17.91542	-8.96457	4.78582
17.91948	-8.98654	4.78582
17.92354	-8.98654	4.78582
17.92759	-9.00851	4.78582
17.93165	-9.00851	4.78582
17.93571	-9.00851	4.78582
17.93976	-9.00851	4.78582
17.94382	-9.00851	4.78582
17.94788	-9.00851	4.78582
17.95218	-9.03048	4.78582
17.95624	-9.03048	4.78582
17.96030	-9.03048	4.78582
17.96432	-9.03048	4.78582
17.96838	-9.03048	4.78582
17.97244	-9.03048	4.78582
17.97650	-9.03048	4.78582
17.98058	-9.03048	4.78582
17.98464	-9.03048	4.78582
17.98870	-9.03048	4.78582
17.99275	-9.03048	4.78582
17.99681	-9.03048	4.78582
18.00087	-9.05246	4.78582
18.00493	-9.03048	4.78582
18.00899	-9.05246	4.78582
18.01305	-9.03048	4.78582
18.01711	-9.03048	4.78582
18.02117	-9.03048	4.78582
18.02522	-9.03048	4.78582
18.02928	-9.03048	4.78582
18.03334	-9.03048	4.78582
18.03740	-9.03048	4.78582
18.04145	-9.03048	4.78582
18.04551	-9.03048	4.78582
18.04957	-9.03048	4.78582
18.05386	-9.00851	4.78582
18.05792	-9.00851	4.78582
18.06198	-9.00851	4.78582
18.06604	-9.00851	4.78582
18.07010	-9.00851	4.78582
18.07416	-8.98654	4.78582
18.07821	-8.98654	4.78582
18.08229	-8.98654	4.78582
18.08636	-8.98654	4.78582
18.09042	-8.98654	4.78582
18.09448	-8.96457	4.78582
18.09854	-8.96457	4.78582
18.10260	-8.96457	4.78582
18.10665	-8.94259	4.78582
18.11071	-8.94259	4.78582
18.11477	-8.94259	4.78582
18.11883	-8.94259	4.78582
18.12289	-8.92062	4.78582
18.12694	-8.92062	4.78582
18.13100	-8.92062	4.78582
18.13506	-8.89865	4.78582
18.13911	-8.87668	4.78582
18.14317	-8.87668	4.78582
18.14723	-8.87668	4.78582
18.15129	-8.85470	4.78582
18.15558	-8.85470	4.78582
18.15964	-8.85470	4.78582
18.16370	-8.83273	4.78582
18.16777	-8.83273	4.78582
18.17183	-8.81076	4.78582
18.17589	-8.81076	4.78582
18.17994	-8.78879	4.78582
18.18402	-8.76681	4.78582
18.18809	-8.74484	4.78582
18.19215	-8.74484	4.78582
18.19621	-8.74484	4.78582
18.20026	-8.74484	4.78582
18.20431	-8.72287	4.78582
18.20837	-8.72287	4.78582
18.21243	-8.72287	4.78582
18.21649	-8.67892	4.78582
18.22055	-8.67892	4.78582
18.22460	-8.65695	4.78582
18.22866	-8.63498	4.78582
18.23272	-8.63498	4.78582
18.23678	-8.63498	4.78582
18.24083	-8.61300	4.78582
18.24489	-8.59103	4.78582
18.24895	-8.56906	4.78582
18.25300	-8.56906	4.78582
18.25731	-8.56906	4.78582
18.26137	-8.54709	4.78582
18.26542	-8.52511	4.78582
18.26949	-8.50314	4.78582
18.27355	-8.50314	4.78582
18.27760	-8.50314	4.78582
18.28166	-8.48117	4.78582
18.28574	-8.45920	4.78582
18.28980	-8.43722	4.78582
18.29387	-8.41525	4.78582
18.29792	-8.41525	4.78582
18.30198	-8.39328	4.78582
18.30604	-8.37131	4.78582
18.31010	-8.34933	4.78582
18.31416	-8.34933	4.78582
18.31822	-8.32736	4.78582
18.32228	-8.32736	4.78582
18.32633	-8.30539	4.78582
18.33039	-8.28341	4.78582
18.33445	-8.26144	4.78582
18.33851	-8.23947	4.78582
18.34256	-8.23947	4.78582
18.34662	-8.21750	4.78582
18.35068	-8.19552	4.78582
18.35473	-8.17355	4.78582
18.35904	-8.15158	4.78582
18.36310	-8.12961	4.78582
18.36715	-8.12961	4.78582
18.37122	-8.10763	4.78582
18.37528	-8.08566	4.78582
18.37934	-8.06369	4.78582
18.38340	-8.04172	4.78582
18.38748	-8.04172	4.78582
18.39155	-8.01974	4.78582
18.39561	-7.99777	4.78582
18.39967	-7.97580	4.78582
18.40373	-7.95382	4.78582
18.40778	-7.95382	4.78582
18.41184	-7.93185	4.78582
18.41590	-7.93185	4.78582
18.41996	-7.88791	4.78582
18.42402	-7.88791	4.78582
18.42808	-7.86593	4.78582
18.43214	-7.84396	4.78582
18.43620	-7.82199	4.78582
18.44025	-7.80002	4.78582
18.44431	-7.77804	4.78582
18.44837	-7.77804	4.78582
18.45243	-7.75607	4.78582
18.45649	-7.73410	4.78582
18.46079	-7.71213	4.78582
18.46485	-7.69015	4.78582
18.46891	-7.69015	4.78582
18.47297	-7.69015	4.78582
18.47703	-7.64621	4.78582
18.48109	-7.62423	4.78582
18.48515	-7.60226	4.78582
18.48923	-7.58029	4.78582
18.49329	-7.58029	4.78582
18.49735	-7.58029	4.78582
18.50141	-7.53634	4.78582
18.50546	-7.51437	4.78582
18.50952	-7.49240	4.78582
18.51358	-7.49240	4.78582
18.51764	-7.47043	4.78582
18.52170	-7.44845	4.78582
18.52575	-7.42648	4.78582
18.52981	-7.40451	4.78582
18.53387	-7.38254	4.78582
18.53793	-7.38254	4.78582
18.54198	-7.36056	4.78582
18.54604	-7.33859	4.78582
18.55010	-7.31662	4.78582
18.55415	-7.29464	4.78582
18.55821	-7.29464	4.78582
18.56251	-7.27267	4.78582
18.56657	-7.25070	4.78582
18.57063	-7.22873	4.78582
18.57470	-7.20675	4.78582
18.57876	-7.18478	4.78582
18.58281	-7.18478	4.78582
18.58687	-7.16281	4.78582
18.59095	-7.14084	4.78582
18.59501	-7.11886	4.78582
18.59907	-7.11886	4.78582
18.60313	-7.09689	4.78582
18.60719	-7.07492	4.78582
18.61125	-7.07492	4.78582
18.61530	-7.05295	4.78582
18.61937	-7.03097	4.78582
18.62342	-7.03097	4.78582
18.62748	-7.00900	4.78582
18.63154	-6.98703	4.78582
18.63560	-6.96506	4.78582
18.63965	-6.94308	4.78582
18.64371	-6.94308	4.78582
18.64777	-6.92111	4.78582
18.65183	-6.89914	4.78582
18.65588	-6.87716	4.78582
18.65994	-6.85519	4.78582
18.66425	-6.85519	4.78582
18.66830	-6.83322	4.78582
18.67232	-6.81125	4.78582
18.67637	-6.78927	4.78582
18.68043	-6.78927	4.78582
18.68449	-6.78927	4.78582
18.68855	-6.76730	4.78582
18.69261	-6.74533	4.78582
18.69667	-6.72336	4.78582
18.70072	-6.70138	4.78582
18.70478	-6.67941	4.78582
18.70884	-6.67941	4.78582
18.71289	-6.65744	4.78582
18.71695	-6.65744	4.78582
18.72101	-6.63547	4.78582
18.72506	-6.63547	4.78582
18.72912	-6.61349	4.78582
18.73318	-6.59152	4.78582
18.73724	-6.56955	4.78582
18.74129	-6.56955	4.78582
18.74535	-6.54757	4.78582
18.74941	-6.54757	4.78582
18.75346	-6.52560	4.78582
18.75752	-6.50363	4.78582
18.76158	-6.50363	4.78582
18.76589	-6.48166	4.78582
18.76994	-6.48166	4.78582
18.77400	-6.45968	4.78582
18.77806	-6.43771	4.78582
18.78212	-6.41574	4.78582
18.78617	-6.41574	4.78582
18.79023	-6.39377	4.78582
18.79429	-6.39377	4.78582
18.79835	-6.39377	4.78582
18.80241	-6.37179	4.78582
18.80646	-6.34982	4.78582
18.81052	-6.34982	4.78582
18.81458	-6.34982	4.78582
18.81864	-6.32785	4.78582
18.82269	-6.30588	4.78582
18.82675	-6.30588	4.78582
18.83081	-6.28390	4.78582
18.83486	-6.28390	4.78582
18.83892	-6.28390	4.78582
18.84298	-6.26193	4.78582
18.84703	-6.23996	4.78582
18.85109	-6.21798	4.78582
18.85515	-6.21798	4.78582
18.85920	-6.21798	4.78582
18.86326	-6.19601	4.78582
18.86756	-6.19601	4.78582
18.87162	-6.17404	4.78582
18.87567	-6.17404	4.78582
18.87973	-6.17404	4.78582
18.88379	-6.15207	4.78582
18.88785	-6.15207	4.78582
18.89190	-6.13009	4.78582
18.89597	-6.13009	4.78582
18.90002	-6.13009	4.78582
18.90408	-6.10812	4.78582
18.90814	-6.10812	4.78582
18.91220	-6.10812	4.78582
18.91625	-6.08615	4.78582
18.92032	-6.08615	4.78582
18.92438	-6.06418	4.78582
18.92843	-6.06418	4.78582
18.93249	-6.06418	4.78582
18.93655	-6.04220	4.78582
18.94060	-6.04220	4.78582
18.94466	-6.04220	4.78582
18.94872	-6.04220	4.78582
18.95277	-6.02023	4.78582
18.95683	-6.02023	4.78582
18.96089	-6.02023	4.78582
18.96494	-6.02023	4.78582
18.96924	-5.99826	4.78582
18.97330	-5.99826	4.78582
18.97736	-5.97629	4.78582
18.98141	-5.97629	4.78582
18.98547	-5.97629	4.78582
18.98953	-5.97629	4.78582
18.99358	-5.95431	4.78582
18.99764	-5.95431	4.78582
19.00170	-5.95431	4.78582
19.00576	-5.93234	4.78582
19.00982	-5.93234	4.78582
19.01387	-5.93234	4.78582
19.01793	-5.93234	4.78582
19.02199	-5.93234	4.78582
19.02604	-5.93234	4.78582
19.03010	-5.93234	4.78582
19.03416	-5.93234	4.78582
19.03821	-5.91037	4.78582
19.04227	-5.91037	4.78582
19.04633	-5.91037	4.78582
19.05038	-5.91037	4.78582
19.05444	-5.91037	4.78582
19.05850	-5.91037	4.78582
19.06256	-5.91037	4.78582
19.06661	-5.88839	4.78582
19.07091	-5.88839	4.78582
19.07497	-5.88839	4.78582
19.07902	-5.88839	4.78582
19.08308	-5.88839	4.78582
19.08714	-5.88839	4.78582
19.09119	-5.88839	4.78582
19.09525	-5.88839	4.78582
19.09931	-5.88839	4.78582
19.10337	-5.88839	4.78582
19.10743	-5.86642	4.78582
19.11148	-5.88839	4.78582
19.11554	-5.88839	4.78582
19.11960	-5.88839	4.78582
19.12365	-5.88839	4.78582
19.12771	-5.86642	4.78582
19.13177	-5.88839	4.78582
19.13583	-5.86642	4.78582
19.13988	-5.86642	4.78582
19.14394	-5.88839	4.78582
19.14800	-5.88839	4.78582
19.15205	-5.86642	4.78582
19.15611	-5.86642	4.78582
19.16017	-5.88839	4.78582
19.16423	-5.86642	4.78582
19.16828	-5.86642	4.78582
19.17256	-5.88839	4.78582
19.17661	-5.88839	4.78582
19.18067	-5.88839	4.78582
19.18473	-5.86642	4.78582
19.18879	-5.88839	4.78582
19.19284	-5.88839	4.78582
19.19690	-5.88839	4.78582
19.20096	-5.88839	4.78582
19.20502	-5.88839	4.78582
19.20908	-5.88839	4.78582
19.21313	-5.88839	4.78582
19.21719	-5.88839	4.78582
19.22125	-5.88839	4.78582
19.22530	-5.88839	4.78582
19.22936	-5.88839	4.78582
19.23342	-5.91037	4.78582
19.23748	-5.88839	4.78582
19.24153	-5.88839	4.78582
19.24559	-5.91037	4.78582
19.24965	-5.91037	4.78582
19.25372	-5.91037	4.78582
19.25778	-5.91037	4.78582
19.26184	-5.91037	4.78582
19.26589	-5.91037	4.78582
19.26995	-5.91037	4.78582
19.27424	-5.91037	4.78582
19.27830	-5.91037	4.78582
19.28236	-5.93234	4.78582
19.28642	-5.93234	4.78582
19.29048	-5.93234	4.78582
19.29453	-5.93234	4.78582
19.29859	-5.93234	4.78582
19.30265	-5.93234	4.78582
19.30671	-5.93234	4.78582
19.31077	-5.93234	4.78582
19.31483	-5.93234	4.78582
19.31888	-5.95431	4.78582
19.32294	-5.95431	4.78582
19.32700	-5.95431	4.78582
19.33105	-5.95431	4.78582
19.33511	-5.95431	4.78582
19.33917	-5.95431	4.78582
19.34322	-5.95431	4.78582
19.34728	-5.95431	4.78582
19.35134	-5.95431	4.78582
19.35540	-5.97629	4.78582
19.35945	-5.97629	4.78582
19.36351	-5.97629	4.78582
19.36757	-5.97629	4.78582
19.37163	-5.97629	4.78582
19.37593	-5.97629	4.78582
19.37999	-5.97629	4.78582
19.38405	-5.97629	4.78582
19.38811	-5.99826	4.78582
19.39216	-5.97629	4.78582
19.39622	-5.97629	4.78582
19.40028	-5.99826	4.78582
19.40433	-5.99826	4.78582
19.40839	-5.99826	4.78582
19.41244	-6.02023	4.78582
19.41650	-6.02023	4.78582
19.42056	-5.99826	4.78582
19.42461	-5.99826	4.78582
19.42867	-6.02023	4.78582
19.43273	-6.02023	4.78582
19.43678	-6.02023	4.78582
19.44084	-6.02023	4.78582
19.44490	-6.02023	4.78582
19.44895	-6.02023	4.78582
19.45301	-6.02023	4.78582
19.45707	-6.02023	4.78582
19.46113	-6.04220	4.78582
19.46518	-6.04220	4.78582
19.46924	-6.04220	4.78582
19.47330	-6.04220	4.78582
19.47759	-6.04220	4.78582
19.48164	-6.04220	4.78582
19.48570	-6.04220	4.78582
19.48976	-6.04220	4.78582
19.49382	-6.04220	4.78582
19.49787	-6.04220	4.78582
19.50193	-6.04220	4.78582
19.50599	-6.06418	4.78582
19.51005	-6.06418	4.78582
19.51411	-6.06418	4.78582
19.51816	-6.06418	4.78582
19.52222	-6.06418	4.78582
19.52628	-6.06418	4.78582
19.53033	-6.06418	4.78582
19.53439	-6.06418	4.78582
19.53845	-6.06418	4.78582
19.54250	-6.06418	4.78582
19.54656	-6.08615	4.78582
19.55062	-6.08615	4.78582
19.55467	-6.08615	4.78582
19.55873	-6.08615	4.78582
19.56279	-6.08615	4.78582
19.56685	-6.08615	4.78582
19.57090	-6.08615	4.78582
19.57496	-6.08615	4.78582
19.57924	-6.08615	4.78582
19.58330	-6.08615	4.78582
19.58736	-6.08615	4.78582
19.59142	-6.08615	4.78582
19.59547	-6.08615	4.78582
19.59953	-6.08615	4.78582
19.60359	-6.08615	4.78582
19.60765	-6.08615	4.78582
19.61171	-6.08615	4.78582
19.61577	-6.08615	4.78582
19.61982	-6.10812	4.78582
19.62388	-6.10812	4.78582
19.62794	-6.10812	4.78582
19.63200	-6.08615	4.78582
19.63605	-6.10812	4.78582
19.64011	-6.10812	4.78582
19.64417	-6.10812	4.78582
19.64822	-6.10812	4.78582
19.65228	-6.10812	4.78582
19.65632	-6.10812	4.78582
19.66038	-6.10812	4.78582
19.66443	-6.10812	4.78582
19.66849	-6.10812	4.78582
19.67255	-6.10812	4.78582
19.67661	-6.10812	4.78582
19.68089	-6.10812	4.78582
19.68495	-6.10812	4.78582
19.68901	-6.10812	4.78582
19.69306	-6.10812	4.78582
19.69712	-6.10812	4.78582
19.70118	-6.10812	4.78582
19.70523	-6.10812	4.78582
19.70930	-6.13009	4.78582
19.71335	-6.13009	4.78582
19.71741	-6.10812	4.78582
19.72147	-6.13009	4.78582
19.72553	-6.13009	4.78582
19.72958	-6.13009	4.78582
19.73364	-6.13009	4.78582
19.73770	-6.15207	4.78582
19.74175	-6.13009	4.78582
19.74581	-6.13009	4.78582
19.74987	-6.13009	4.78582
19.75392	-6.13009	4.78582
19.75798	-6.13009	4.78582
19.76204	-6.13009	4.78582
19.76609	-6.15207	4.78582
19.77015	-6.13009	4.78582
19.77421	-6.15207	4.78582
19.77826	-6.15207	4.78582
19.78255	-6.15207	4.78582
19.78661	-6.15207	4.78582
19.79067	-6.15207	4.78582
19.79473	-6.15207	4.78582
19.79878	-6.15207	4.78582
19.80284	-6.15207	4.78582
19.80690	-6.15207	4.78582
19.81096	-6.17404	4.78582
19.81502	-6.15207	4.78582
19.81907	-6.17404	4.78582
19.82313	-6.17404	4.78582
19.82719	-6.17404	4.78582
19.83124	-6.17404	4.78582
19.83530	-6.17404	4.78582
19.83936	-6.17404	4.78582
19.84341	-6.17404	4.78582
19.84747	-6.17404	4.78582
19.85153	-6.19601	4.78582
19.85558	-6.17404	4.78582
19.85964	-6.17404	4.78582
19.86370	-6.17404	4.78582
19.86776	-6.19601	4.78582
19.87181	-6.19601	4.78582
19.87587	-6.19601	4.78582
19.87993	-6.19601	4.78582
19.88421	-6.19601	4.78582
19.88827	-6.19601	4.78582
19.89232	-6.19601	4.78582
19.89638	-6.19601	4.78582
19.90043	-6.19601	4.78582
19.90449	-6.21798	4.78582
19.90855	-6.21798	4.78582
19.91261	-6.21798	4.78582
19.91667	-6.21798	4.78582
19.92072	-6.21798	4.78582
19.92478	-6.21798	4.78582
19.92884	-6.21798	4.78582
19.93289	-6.21798	4.78582
19.93695	-6.21798	4.78582
19.94101	-6.21798	4.78582
19.94507	-6.21798	4.78582
19.94912	-6.21798	4.78582
19.95318	-6.21798	4.78582
19.95724	-6.21798	4.78582
19.96129	-6.23996	4.78582
19.96535	-6.23996	4.78582
19.96941	-6.23996	4.78582
19.97346	-6.21798	4.78582
19.97752	-6.23996	4.78582
19.98159	-6.23996	4.78582
19.98587	-6.23996	4.78582
19.98993	-6.23996	4.78582
19.99399	-6.23996	4.78582
19.99805	-6.23996	4.78582
20.00210	-6.23996	4.78582
20.00616	-6.23996	4.78582
20.01022	-6.23996	4.78582
20.01428	-6.23996	4.78582
20.01834	-6.23996	4.78582
20.02239	-6.23996	4.78582
20.02645	-6.23996	4.78582
20.03051	-6.23996	4.78582
20.03457	-6.23996	4.78582
20.03862	-6.23996	4.78582
20.04268	-6.23996	4.78582
20.04674	-6.23996	4.78582
20.05079	-6.23996	4.78582
20.05485	-6.23996	4.78582
20.05891	-6.23996	4.78582
20.06296	-6.23996	4.78582
20.06702	-6.23996	4.78582
20.07108	-6.23996	4.78582
20.07514	-6.23996	4.78582
20.07919	-6.23996	4.78582
20.08325	-6.23996	4.78582
20.08754	-6.23996	4.78582
20.09160	-6.23996	4.78582
20.09565	-6.23996	4.78582
20.09971	-6.23996	4.78582
20.10377	-6.23996	4.78582
20.10782	-6.23996	4.78582
20.11188	-6.23996	4.78582
20.11594	-6.23996	4.78582
20.12000	-6.23996	4.78582
20.12406	-6.23996	4.78582
20.12812	-6.23996	4.78582
20.13217	-6.23996	4.78582
20.13623	-6.23996	4.78582
20.14029	-6.23996	4.78582
20.14431	-6.23996	4.78582
20.14837	-6.21798	4.78582
20.15243	-6.23996	4.78582
20.15648	-6.23996	4.78582
20.16054	-6.23996	4.78582
20.16460	-6.23996	4.78582
20.16865	-6.23996	4.78582
20.17271	-6.23996	4.78582
20.17677	-6.23996	4.78582
20.18083	-6.23996	4.78582
20.18488	-6.23996	4.78582
20.18917	-6.23996	4.78582
20.19322	-6.23996	4.78582
20.19728	-6.21798	4.78582
20.20134	-6.21798	4.78582
20.20540	-6.21798	4.78582
20.20946	-6.21798	4.78582
20.21352	-6.21798	4.78582
20.21758	-6.21798	4.78582
20.22164	-6.21798	4.78582
20.22569	-6.21798	4.78582
20.22975	-6.21798	4.78582
20.23381	-6.21798	4.78582
20.23786	-6.21798	4.78582
20.24192	-6.21798	4.78582
20.24598	-6.21798	4.78582
20.25003	-6.21798	4.78582
20.25409	-6.21798	4.78582
20.25815	-6.21798	4.78582
20.26220	-6.21798	4.78582
20.26626	-6.21798	4.78582
20.27032	-6.21798	4.78582
20.27438	-6.19601	4.78582
20.27843	-6.19601	4.78582
20.28249	-6.21798	4.78582
20.28655	-6.19601	4.78582
20.29083	-6.19601	4.78582
20.29489	-6.19601	4.78582
20.29895	-6.19601	4.78582
20.30301	-6.19601	4.78582
20.30706	-6.19601	4.78582
20.31112	-6.19601	4.78582
20.31518	-6.19601	4.78582
20.31924	-6.19601	4.78582
20.32330	-6.19601	4.78582
20.32736	-6.19601	4.78582
20.33141	-6.19601	4.78582
20.33547	-6.19601	4.78582
20.33953	-6.19601	4.78582
20.34358	-6.19601	4.78582
20.34764	-6.19601	4.78582
20.35170	-6.17404	4.78582
20.35575	-6.17404	4.78582
20.35981	-6.19601	4.78582
20.36387	-6.17404	4.78582
20.36792	-6.19601	4.78582
20.37198	-6.19601	4.78582
20.37604	-6.19601	4.78582
20.38010	-6.19601	4.78582
20.38415	-6.19601	4.78582
20.38821	-6.17404	4.78582
20.39251	-6.17404	4.78582
20.39657	-6.17404	4.78582
20.40062	-6.17404	4.78582
20.40468	-6.17404	4.78582
20.40874	-6.17404	4.78582
20.41279	-6.17404	4.78582
20.41685	-6.17404	4.78582
20.42091	-6.17404	4.78582
20.42497	-6.17404	4.78582
20.42903	-6.17404	4.78582
20.43308	-6.17404	4.78582
20.43714	-6.17404	4.78582
20.44120	-6.17404	4.78582
20.44525	-6.17404	4.78582
20.44931	-6.17404	4.78582
20.45337	-6.17404	4.78582
20.45742	-6.17404	4.78582
20.46148	-6.17404	4.78582
20.46554	-6.17404	4.78582
20.46960	-6.17404	4.78582
20.47365	-6.17404	4.78582
20.47771	-6.17404	4.78582
20.48177	-6.17404	4.78582
20.48582	-6.17404	4.78582
20.48988	-6.15207	4.78582
20.49416	-6.15207	4.78582
20.49822	-6.17404	4.78582
20.50228	-6.15207	4.78582
20.50634	-6.15207	4.78582
20.51039	-6.15207	4.78582
20.51445	-6.15207	4.78582
20.51851	-6.15207	4.78582
20.52257	-6.15207	4.78582
20.52663	-6.15207	4.78582
20.53068	-6.15207	4.78582
20.53474	-6.15207	4.78582
20.53880	-6.15207	4.78582
20.54285	-6.15207	4.78582
20.54691	-6.15207	4.78582
20.55097	-6.15207	4.78582
20.55502	-6.15207	4.78582
20.55908	-6.15207	4.78582
20.56314	-6.15207	4.78582
20.56719	-6.15207	4.78582
20.57125	-6.15207	4.78582
20.57531	-6.15207	4.78582
20.57937	-6.15207	4.78582
20.58342	-6.15207	4.78582
20.58748	-6.15207	4.78582
20.59154	-6.15207	4.78582
20.59582	-6.15207	4.78582
20.59988	-6.15207	4.78582
20.60394	-6.15207	4.78582
20.60799	-6.15207	4.78582
20.61205	-6.15207	4.78582
20.61611	-6.15207	4.78582
20.62017	-6.15207	4.78582
20.62423	-6.15207	4.78582
20.62829	-6.15207	4.78582
20.63231	-6.15207	4.78582
20.63637	-6.15207	4.78582
20.64043	-6.15207	4.78582
20.64449	-6.13009	4.78582
20.64854	-6.13009	4.78582
20.65260	-6.15207	4.78582
20.65666	-6.15207	4.78582
20.66071	-6.13009	4.78582
20.66477	-6.13009	4.78582
20.66883	-6.15207	4.78582
20.67289	-6.13009	4.78582
20.67694	-6.13009	4.78582
20.68100	-6.13009	4.78582
20.68506	-6.15207	4.78582
20.68911	-6.13009	4.78582
20.69317	-6.15207	4.78582
20.69745	-6.15207	4.78582
20.70151	-6.15207	4.78582
20.70557	-6.13009	4.78582
20.70963	-6.13009	4.78582
20.71368	-6.13009	4.78582
20.71774	-6.13009	4.78582
20.72180	-6.13009	4.78582
20.72586	-6.13009	4.78582
20.72992	-6.15207	4.78582
20.73398	-6.13009	4.78582
20.73804	-6.13009	4.78582
20.74209	-6.15207	4.78582
20.74615	-6.15207	4.78582
20.75021	-6.15207	4.78582
20.75426	-6.15207	4.78582
20.75832	-6.15207	4.78582
20.76238	-6.15207	4.78582
20.76643	-6.15207	4.78582
20.77049	-6.15207	4.78582
20.77455	-6.15207	4.78582
20.77860	-6.15207	4.78582
20.78266	-6.15207	4.78582
20.78672	-6.15207	4.78582
20.79077	-6.15207	4.78582
20.79483	-6.15207	4.78582
20.79912	-6.15207	4.78582
20.80317	-6.15207	4.78582
20.80723	-6.15207	4.78582
20.81129	-6.17404	4.78582
20.81534	-6.17404	4.78582
20.81940	-6.15207	4.78582
20.82346	-6.17404	4.78582
20.82752	-6.17404	4.78582
20.83158	-6.17404	4.78582
20.83564	-6.15207	4.78582
20.83969	-6.17404	4.78582
20.84375	-6.17404	4.78582
20.84781	-6.17404	4.78582
20.85187	-6.17404	4.78582
20.85592	-6.17404	4.78582
20.85998	-6.17404	4.78582
20.86404	-6.17404	4.78582
20.86809	-6.17404	4.78582
20.87215	-6.17404	4.78582
20.87621	-6.17404	4.78582
20.88026	-6.17404	4.78582
20.88432	-6.19601	4.78582
20.88838	-6.17404	4.78582
20.89243	-6.17404	4.78582
20.89649	-6.19601	4.78582
20.90077	-6.19601	4.78582
20.90483	-6.19601	4.78582
20.90888	-6.19601	4.78582
20.91294	-6.19601	4.78582
20.91700	-6.19601	4.78582
20.92106	-6.19601	4.78582
20.92511	-6.19601	4.78582
20.92917	-6.19601	4.78582
20.93323	-6.19601	4.78582
20.93729	-6.19601	4.78582
20.94135	-6.21798	4.78582
20.94540	-6.21798	4.78582
20.94946	-6.21798	4.78582
20.95352	-6.23996	4.78582
20.95757	-6.23996	4.78582
20.96163	-6.21798	4.78582
20.96569	-6.21798	4.78582
20.96974	-6.23996	4.78582
20.97380	-6.23996	4.78582
20.97786	-6.23996	4.78582
20.98191	-6.23996	4.78582
20.98597	-6.23996	4.78582
20.99003	-6.23996	4.78582
20.99409	-6.23996	4.78582
20.99814	-6.23996	4.78582
21.00242	-6.26193	4.78582
21.00648	-6.26193	4.78582
21.01054	-6.26193	4.78582
21.01459	-6.26193	4.78582
21.01865	-6.26193	4.78582
21.02271	-6.26193	4.78582
21.02676	-6.26193	4.78582
21.03083	-6.28390	4.78582
21.03488	-6.28390	4.78582
21.03894	-6.28390	4.78582
21.04300	-6.28390	4.78582
21.04705	-6.28390	4.78582
21.05111	-6.28390	4.78582
21.05517	-6.30588	4.78582
21.05922	-6.28390	4.78582
21.06328	-6.28390	4.78582
21.06734	-6.30588	4.78582
21.07140	-6.30588	4.78582
21.07545	-6.30588	4.78582
21.07951	-6.30588	4.78582
21.08357	-6.30588	4.78582
21.08762	-6.30588	4.78582
21.09168	-6.30588	4.78582
21.09574	-6.32785	4.78582
21.09979	-6.32785	4.78582
21.10407	-6.32785	4.78582
21.10813	-6.32785	4.78582
21.11219	-6.32785	4.78582
21.11624	-6.34982	4.78582
21.12030	-6.34982	4.78582
21.12432	-6.34982	4.78582
21.12838	-6.34982	4.78582
21.13244	-6.34982	4.78582
21.13649	-6.34982	4.78582
21.14055	-6.37179	4.78582
21.14461	-6.39377	4.78582
21.14866	-6.39377	4.78582
21.15272	-6.37179	4.78582
21.15678	-6.39377	4.78582
21.16084	-6.39377	4.78582
21.16489	-6.39377	4.78582
21.16895	-6.39377	4.78582
21.17301	-6.39377	4.78582
21.17706	-6.39377	4.78582
21.18112	-6.39377	4.78582
21.18518	-6.41574	4.78582
21.18923	-6.41574	4.78582
21.19329	-6.41574	4.78582
21.19735	-6.41574	4.78582
21.20140	-6.41574	4.78582
21.20569	-6.41574	4.78582
21.20974	-6.43771	4.78582
21.21380	-6.43771	4.78582
21.21786	-6.43771	4.78582
21.22192	-6.43771	4.78582
21.22598	-6.43771	4.78582
21.23003	-6.45968	4.78582
21.23410	-6.45968	4.78582
21.23815	-6.45968	4.78582
21.24221	-6.45968	4.78582
21.24627	-6.45968	4.78582
21.25032	-6.45968	4.78582
21.25438	-6.48166	4.78582
21.25844	-6.48166	4.78582
21.26250	-6.48166	4.78582
21.26655	-6.48166	4.78582
21.27061	-6.48166	4.78582
21.27467	-6.48166	4.78582
21.27873	-6.50363	4.78582
21.28278	-6.50363	4.78582
21.28684	-6.50363	4.78582
21.29090	-6.50363	4.78582
21.29495	-6.50363	4.78582
21.29901	-6.50363	4.78582
21.30307	-6.52560	4.78582
21.30736	-6.52560	4.78582
21.31142	-6.52560	4.78582
21.31547	-6.52560	4.78582
21.31953	-6.52560	4.78582
21.32359	-6.52560	4.78582
21.32764	-6.54757	4.78582
21.33170	-6.54757	4.78582
21.33576	-6.54757	4.78582
21.33982	-6.54757	4.78582
21.34387	-6.54757	4.78582
21.34793	-6.54757	4.78582
21.35198	-6.56955	4.78582
21.35604	-6.56955	4.78582
21.36009	-6.56955	4.78582
21.36415	-6.56955	4.78582
21.36820	-6.56955	4.78582
21.37226	-6.56955	4.78582
21.37631	-6.59152	4.78582
21.38037	-6.59152	4.78582
21.38442	-6.59152	4.78582
21.38848	-6.59152	4.78582
21.39253	-6.59152	4.78582
21.39659	-6.59152	4.78582
21.40064	-6.59152	4.78582
21.40470	-6.59152	4.78582
21.40895	-6.61349	4.78582
21.41300	-6.61349	4.78582
21.41706	-6.61349	4.78582
21.42111	-6.61349	4.78582
21.42517	-6.61349	4.78582
21.42923	-6.61349	4.78582
21.43328	-6.61349	4.78582
21.43735	-6.61349	4.78582
21.44140	-6.61349	4.78582
21.44546	-6.63547	4.78582
21.44952	-6.63547	4.78582
21.45357	-6.63547	4.78582
21.45763	-6.63547	4.78582
21.46169	-6.63547	4.78582
21.46574	-6.65744	4.78582
21.46980	-6.65744	4.78582
21.47386	-6.65744	4.78582
21.47792	-6.65744	4.78582
21.48197	-6.65744	4.78582
21.48603	-6.65744	4.78582
21.49009	-6.65744	4.78582
21.49414	-6.65744	4.78582
21.49820	-6.65744	4.78582
21.50226	-6.65744	4.78582
21.50631	-6.65744	4.78582
21.51060	-6.67941	4.78582
21.51465	-6.67941	4.78582
21.51871	-6.67941	4.78582
21.52277	-6.67941	4.78582
21.52683	-6.67941	4.78582
21.53088	-6.67941	4.78582
21.53494	-6.67941	4.78582
21.53900	-6.67941	4.78582
21.54306	-6.67941	4.78582
21.54712	-6.67941	4.78582
21.55117	-6.67941	4.78582
21.55523	-6.70138	4.78582
21.55929	-6.70138	4.78582
21.56334	-6.70138	4.78582
21.56740	-6.67941	4.78582
21.57146	-6.70138	4.78582
21.57551	-6.70138	4.78582
21.57958	-6.70138	4.78582
21.58363	-6.70138	4.78582
21.58769	-6.70138	4.78582
21.59175	-6.70138	4.78582
21.59581	-6.70138	4.78582
21.59986	-6.70138	4.78582
21.60392	-6.70138	4.78582
21.60798	-6.70138	4.78582
21.61227	-6.72336	4.78582
21.61632	-6.72336	4.78582
21.62038	-6.72336	4.78582
21.62443	-6.70138	4.78582
21.62849	-6.70138	4.78582
21.63255	-6.72336	4.78582
21.63661	-6.72336	4.78582
21.64067	-6.72336	4.78582
21.64473	-6.72336	4.78582
21.64878	-6.72336	4.78582
21.65284	-6.72336	4.78582
21.65690	-6.72336	4.78582
21.66095	-6.72336	4.78582
21.66501	-6.72336	4.78582
21.66907	-6.72336	4.78582
21.67312	-6.72336	4.78582
21.67718	-6.72336	4.78582
21.68124	-6.72336	4.78582
21.68530	-6.72336	4.78582
21.68935	-6.72336	4.78582
21.69341	-6.72336	4.78582
21.69747	-6.72336	4.78582
21.70152	-6.72336	4.78582
21.70558	-6.72336	4.78582
21.70964	-6.72336	4.78582
21.71393	-6.72336	4.78582
21.71799	-6.74533	4.78582
21.72204	-6.72336	4.78582
21.72610	-6.72336	4.78582
21.73016	-6.72336	4.78582
21.73422	-6.74533	4.78582
21.73827	-6.72336	4.78582
21.74234	-6.72336	4.78582
21.74639	-6.72336	4.78582
21.75045	-6.72336	4.78582
21.75451	-6.72336	4.78582
21.75857	-6.72336	4.78582
21.76262	-6.72336	4.78582
21.76668	-6.72336	4.78582
21.77074	-6.72336	4.78582
21.77479	-6.72336	4.78582
21.77885	-6.72336	4.78582
21.78291	-6.72336	4.78582
21.78696	-6.72336	4.78582
21.79102	-6.72336	4.78582
21.79508	-6.72336	4.78582
21.79914	-6.72336	4.78582
21.80319	-6.72336	4.78582
21.80725	-6.72336	4.78582
21.81131	-6.72336	4.78582
21.81559	-6.72336	4.78582
21.81965	-6.72336	4.78582
21.82371	-6.72336	4.78582
21.82776	-6.70138	4.78582
21.83182	-6.70138	4.78582
21.83588	-6.70138	4.78582
21.83993	-6.72336	4.78582
21.84400	-6.70138	4.78582
21.84806	-6.70138	4.78582
21.85211	-6.70138	4.78582
21.85617	-6.72336	4.78582
21.86023	-6.70138	4.78582
21.86428	-6.72336	4.78582
21.86832	-6.70138	4.78582
21.87238	-6.72336	4.78582
21.87644	-6.72336	4.78582
21.88049	-6.70138	4.78582
21.88455	-6.70138	4.78582
21.88861	-6.70138	4.78582
21.89266	-6.72336	4.78582
21.89672	-6.70138	4.78582
21.90078	-6.70138	4.78582
21.90483	-6.70138	4.78582
21.90889	-6.70138	4.78582
21.91295	-6.70138	4.78582
21.91723	-6.70138	4.78582
21.92129	-6.70138	4.78582
21.92535	-6.72336	4.78582
21.92940	-6.67941	4.78582
21.93346	-6.70138	4.78582
21.93752	-6.70138	4.78582
21.94157	-6.70138	4.78582
21.94564	-6.67941	4.78582
21.94969	-6.70138	4.78582
21.95375	-6.70138	4.78582
21.95781	-6.67941	4.78582
21.96186	-6.67941	4.78582
21.96592	-6.67941	4.78582
21.96998	-6.67941	4.78582
21.97404	-6.67941	4.78582
21.97809	-6.67941	4.78582
21.98215	-6.67941	4.78582
21.98621	-6.67941	4.78582
21.99026	-6.67941	4.78582
21.99432	-6.67941	4.78582
21.99838	-6.67941	4.78582
22.00243	-6.67941	4.78582
22.00649	-6.67941	4.78582
22.01055	-6.65744	4.78582
22.01461	-6.67941	4.78582
22.01889	-6.67941	4.78582
22.02294	-6.67941	4.78582
22.02700	-6.67941	4.78582
22.03106	-6.65744	4.78582
22.03512	-6.65744	4.78582
22.03917	-6.67941	4.78582
22.04323	-6.65744	4.78582
22.04729	-6.65744	4.78582
22.05135	-6.65744	4.78582
22.05541	-6.65744	4.78582
22.05946	-6.65744	4.78582
22.06352	-6.65744	4.78582
22.06758	-6.65744	4.78582
22.07164	-6.65744	4.78582
22.07569	-6.65744	4.78582
22.07975	-6.65744	4.78582
22.08381	-6.63547	4.78582
22.08786	-6.63547	4.78582
22.09192	-6.63547	4.78582
22.09598	-6.63547	4.78582
22.10004	-6.63547	4.78582
22.10409	-6.63547	4.78582
22.10815	-6.63547	4.78582
22.11221	-6.63547	4.78582
22.11626	-6.63547	4.78582
22.12055	-6.63547	4.78582
22.12460	-6.63547	4.78582
22.12866	-6.63547	4.78582
22.13272	-6.63547	4.78582
22.13678	-6.61349	4.78582
22.14083	-6.61349	4.78582
22.14489	-6.61349	4.78582
22.14895	-6.61349	4.78582
22.15301	-6.61349	4.78582
22.15707	-6.61349	4.78582
22.16113	-6.61349	4.78582
22.16518	-6.59152	4.78582
22.16925	-6.59152	4.78582
22.17331	-6.59152	4.78582
22.17737	-6.59152	4.78582
22.18142	-6.59152	4.78582
22.18548	-6.59152	4.78582
22.18954	-6.56955	4.78582
22.19360	-6.56955	4.78582
22.19765	-6.56955	4.78582
22.20171	-6.56955	4.78582
22.20577	-6.56955	4.78582
22.20982	-6.56955	4.78582
22.21388	-6.56955	4.78582
22.21794	-6.56955	4.78582
22.22222	-6.54757	4.78582
22.22627	-6.56955	4.78582
22.23033	-6.54757	4.78582
22.23439	-6.54757	4.78582
22.23845	-6.54757	4.78582
22.24250	-6.54757	4.78582
22.24656	-6.54757	4.78582
22.25062	-6.52560	4.78582
22.25468	-6.52560	4.78582
22.25874	-6.52560	4.78582
22.26280	-6.52560	4.78582
22.26685	-6.50363	4.78582
22.27091	-6.52560	4.78582
22.27497	-6.50363	4.78582
22.27902	-6.50363	4.78582
22.28308	-6.50363	4.78582
22.28714	-6.50363	4.78582
22.29119	-6.48166	4.78582
22.29525	-6.50363	4.78582
22.29931	-6.48166	4.78582
22.30336	-6.48166	4.78582
22.30742	-6.48166	4.78582
22.31148	-6.48166	4.78582
22.31553	-6.48166	4.78582
22.31959	-6.45968	4.78582
22.32388	-6.45968	4.78582
22.32794	-6.45968	4.78582
22.33199	-6.45968	4.78582
22.33605	-6.45968	4.78582
22.34011	-6.43771	4.78582
22.34417	-6.43771	4.78582
22.34822	-6.43771	4.78582
22.35229	-6.43771	4.78582
22.35631	-6.43771	4.78582
22.36037	-6.41574	4.78582
22.36443	-6.41574	4.78582
22.36849	-6.41574	4.78582
22.37254	-6.41574	4.78582
22.37660	-6.41574	4.78582
22.38066	-6.41574	4.78582
22.38471	-6.41574	4.78582
22.38877	-6.41574	4.78582
22.39282	-6.39377	4.78582
22.39688	-6.39377	4.78582
22.40094	-6.39377	4.78582
22.40499	-6.37179	4.78582
22.40905	-6.37179	4.78582
22.41311	-6.37179	4.78582
22.41716	-6.37179	4.78582
22.42122	-6.37179	4.78582
22.42551	-6.37179	4.78582
22.42957	-6.34982	4.78582
22.43363	-6.34982	4.78582
22.43768	-6.34982	4.78582
22.44174	-6.34982	4.78582
22.44580	-6.34982	4.78582
22.44985	-6.34982	4.78582
22.45392	-6.34982	4.78582
22.45797	-6.34982	4.78582
22.46203	-6.32785	4.78582
22.46609	-6.32785	4.78582
22.47014	-6.32785	4.78582
22.47420	-6.32785	4.78582
22.47826	-6.32785	4.78582
22.48232	-6.32785	4.78582
22.48637	-6.30588	4.78582
22.49043	-6.30588	4.78582
22.49449	-6.30588	4.78582
22.49854	-6.30588	4.78582
22.50260	-6.30588	4.78582
22.50665	-6.28390	4.78582
22.51071	-6.28390	4.78582
22.51477	-6.28390	4.78582
22.51883	-6.28390	4.78582
22.52288	-6.28390	4.78582
22.52716	-6.26193	4.78582
22.53122	-6.26193	4.78582
22.53528	-6.26193	4.78582
22.53934	-6.26193	4.78582
22.54339	-6.26193	4.78582
22.54745	-6.23996	4.78582
22.55151	-6.23996	4.78582
22.55557	-6.23996	4.78582
22.55963	-6.23996	4.78582
22.56369	-6.23996	4.78582
22.56774	-6.23996	4.78582
22.57180	-6.23996	4.78582
22.57586	-6.21798	4.78582
22.57991	-6.21798	4.78582
22.58397	-6.21798	4.78582
22.58803	-6.21798	4.78582
22.59208	-6.21798	4.78582
22.59614	-6.21798	4.78582
22.60020	-6.21798	4.78582
22.60426	-6.21798	4.78582
22.60832	-6.21798	4.78582
22.61238	-6.19601	4.78582
22.61643	-6.19601	4.78582
22.62049	-6.19601	4.78582
22.62455	-6.19601	4.78582
22.62883	-6.19601	4.78582
22.63289	-6.19601	4.78582
22.63695	-6.19601	4.78582
22.64101	-6.17404	4.78582
22.64506	-6.17404	4.78582
22.64912	-6.17404	4.78582
22.65318	-6.17404	4.78582
22.65724	-6.17404	4.78582
22.66130	-6.17404	4.78582
22.66535	-6.17404	4.78582
22.66941	-6.17404	4.78582
22.67347	-6.17404	4.78582
22.67753	-6.17404	4.78582
22.68158	-6.17404	4.78582
22.68564	-6.15207	4.78582
22.68970	-6.15207	4.78582
22.69375	-6.15207	4.78582
22.69781	-6.15207	4.78582
22.70187	-6.15207	4.78582
22.70592	-6.15207	4.78582
22.70998	-6.13009	4.78582
22.71404	-6.13009	4.78582
22.71809	-6.15207	4.78582
22.72215	-6.15207	4.78582
22.72621	-6.15207	4.78582
22.73050	-6.15207	4.78582
22.73456	-6.15207	4.78582
22.73861	-6.15207	4.78582
22.74267	-6.13009	4.78582
22.74673	-6.15207	4.78582
22.75078	-6.13009	4.78582
22.75484	-6.13009	4.78582
22.75890	-6.13009	4.78582
22.76296	-6.15207	4.78582
22.76702	-6.13009	4.78582
22.77107	-6.13009	4.78582
22.77513	-6.15207	4.78582
22.77919	-6.13009	4.78582
22.78324	-6.13009	4.78582
22.78730	-6.15207	4.78582
22.79136	-6.15207	4.78582
22.79541	-6.13009	4.78582
22.79947	-6.13009	4.78582
22.80353	-6.13009	4.78582
22.80759	-6.13009	4.78582
22.81164	-6.10812	4.78582
22.81570	-6.10812	4.78582
22.81976	-6.10812	4.78582
22.82382	-6.13009	4.78582
22.82788	-6.13009	4.78582
22.83217	-6.10812	4.78582
22.83623	-6.10812	4.78582
22.84029	-6.10812	4.78582
22.84432	-6.13009	4.78582
22.84838	-6.10812	4.78582
22.85244	-6.10812	4.78582
22.85649	-6.10812	4.78582
22.86055	-6.10812	4.78582
22.86461	-6.10812	4.78582
22.86867	-6.10812	4.78582
22.87273	-6.10812	4.78582
22.87678	-6.10812	4.78582
22.88084	-6.10812	4.78582
22.88490	-6.10812	4.78582
22.88895	-6.10812	4.78582
22.89301	-6.10812	4.78582
22.89707	-6.08615	4.78582
22.90112	-6.08615	4.78582
22.90518	-6.08615	4.78582
22.90924	-6.08615	4.78582
22.91330	-6.08615	4.78582
22.91735	-6.08615	4.78582
22.92141	-6.08615	4.78582
22.92547	-6.08615	4.78582
22.92952	-6.08615	4.78582
22.93381	-6.08615	4.78582
22.93787	-6.08615	4.78582
22.94193	-6.08615	4.78582
22.94599	-6.08615	4.78582
22.95004	-6.08615	4.78582
22.95410	-6.08615	4.78582
22.95816	-6.08615	4.78582
22.96222	-6.08615	4.78582
22.96627	-6.08615	4.78582
22.97033	-6.08615	4.78582
22.97439	-6.08615	4.78582
22.97845	-6.06418	4.78582
22.98250	-6.06418	4.78582
22.98656	-6.08615	4.78582
22.99062	-6.08615	4.78582
22.99467	-6.06418	4.78582
22.99873	-6.06418	4.78582
23.00279	-6.06418	4.78582
23.00684	-6.06418	4.78582
23.01090	-6.06418	4.78582
23.01496	-6.06418	4.78582
23.01901	-6.06418	4.78582
23.02307	-6.06418	4.78582
23.02713	-6.06418	4.78582
23.03118	-6.06418	4.78582
23.03547	-6.06418	4.78582
23.03953	-6.06418	4.78582
23.04359	-6.04220	4.78582
23.04764	-6.04220	4.78582
23.05170	-6.06418	4.78582
23.05577	-6.04220	4.78582
23.05983	-6.04220	4.78582
23.06389	-6.06418	4.78582
23.06795	-6.04220	4.78582
23.07201	-6.04220	4.78582
23.07607	-6.04220	4.78582
23.08012	-6.06418	4.78582
23.08418	-6.04220	4.78582
23.08824	-6.04220	4.78582
23.09229	-6.04220	4.78582
23.09631	-6.04220	4.78582
23.10037	-6.04220	4.78582
23.10443	-6.04220	4.78582
23.10848	-6.04220	4.78582
23.11254	-6.04220	4.78582
23.11660	-6.04220	4.78582
23.12066	-6.04220	4.78582
23.12473	-6.04220	4.78582
23.12879	-6.04220	4.78582
23.13285	-6.04220	4.78582
23.13713	-6.04220	4.78582
23.14119	-6.04220	4.78582
23.14525	-6.02023	4.78582
23.14931	-6.04220	4.78582
23.15337	-6.04220	4.78582
23.15743	-6.04220	4.78582
23.16149	-6.04220	4.78582
23.16556	-6.04220	4.78582
23.16962	-6.02023	4.78582
23.17368	-6.04220	4.78582
23.17774	-6.04220	4.78582
23.18180	-6.04220	4.78582
23.18586	-6.04220	4.78582
23.18992	-6.04220	4.78582
23.19397	-6.04220	4.78582
23.19803	-6.02023	4.78582
23.20209	-6.02023	4.78582
23.20615	-6.04220	4.78582
23.21020	-6.04220	4.78582
23.21426	-6.04220	4.78582
23.21832	-6.04220	4.78582
23.22238	-6.02023	4.78582
23.22644	-6.02023	4.78582
23.23050	-6.04220	4.78582
23.23456	-6.04220	4.78582
23.23884	-6.04220	4.78582
23.24290	-6.02023	4.78582
23.24696	-6.02023	4.78582
23.25102	-6.02023	4.78582
23.25507	-6.02023	4.78582
23.25914	-6.02023	4.78582
23.26319	-6.02023	4.78582
23.26726	-6.02023	4.78582
23.27132	-6.02023	4.78582
23.27538	-6.04220	4.78582
23.27944	-6.02023	4.78582
23.28349	-6.04220	4.78582
23.28755	-6.04220	4.78582
23.29161	-6.04220	4.78582
23.29567	-6.02023	4.78582
23.29972	-6.02023	4.78582
23.30378	-6.04220	4.78582
23.30784	-6.04220	4.78582
23.31190	-6.04220	4.78582
23.31596	-6.02023	4.78582
23.32002	-6.04220	4.78582
23.32408	-6.04220	4.78582
23.32815	-6.04220	4.78582
23.33221	-6.02023	4.78582
23.33627	-6.04220	4.78582
23.34055	-6.02023	4.78582
23.34461	-6.02023	4.78582
23.34867	-6.04220	4.78582
23.35273	-6.04220	4.78582
23.35679	-6.04220	4.78582
23.36085	-6.02023	4.78582
23.36490	-6.04220	4.78582
23.36897	-6.04220	4.78582
23.37304	-6.04220	4.78582
23.37710	-6.04220	4.78582
23.38115	-6.04220	4.78582
23.38521	-6.04220	4.78582
23.38927	-6.04220	4.78582
23.39333	-6.04220	4.78582
23.39739	-6.04220	4.78582
23.40145	-6.04220	4.78582
23.40551	-6.04220	4.78582
23.40956	-6.04220	4.78582
23.41362	-6.04220	4.78582
23.41768	-6.04220	4.78582
23.42174	-6.04220	4.78582
23.42580	-6.04220	4.78582
23.42986	-6.04220	4.78582
23.43391	-6.04220	4.78582
23.43797	-6.04220	4.78582
23.44225	-6.04220	4.78582
23.44631	-6.04220	4.78582
23.45037	-6.06418	4.78582
23.45443	-6.04220	4.78582
23.45849	-6.04220	4.78582
23.46254	-6.04220	4.78582
23.46660	-6.06418	4.78582
23.47067	-6.04220	4.78582
23.47473	-6.06418	4.78582
23.47878	-6.06418	4.78582
23.48285	-6.06418	4.78582
23.48690	-6.06418	4.78582
23.49096	-6.06418	4.78582
23.49502	-6.06418	4.78582
23.49908	-6.06418	4.78582
23.50313	-6.06418	4.78582
23.50719	-6.06418	4.78582
23.51125	-6.06418	4.78582
23.51531	-6.06418	4.78582
23.51936	-6.06418	4.78582
23.52342	-6.06418	4.78582
23.52748	-6.06418	4.78582
23.53154	-6.06418	4.78582
23.53560	-6.06418	4.78582
23.53966	-6.06418	4.78582
23.54393	-6.06418	4.78582
23.54800	-6.08615	4.78582
23.55206	-6.08615	4.78582
23.55612	-6.06418	4.78582
23.56017	-6.06418	4.78582
23.56424	-6.08615	4.78582
23.56830	-6.08615	4.78582
23.57233	-6.08615	4.78582
23.57640	-6.08615	4.78582
23.58046	-6.08615	4.78582
23.58452	-6.08615	4.78582
23.58858	-6.08615	4.78582
23.59264	-6.08615	4.78582
23.59670	-6.08615	4.78582
23.60075	-6.08615	4.78582
23.60481	-6.08615	4.78582
23.60887	-6.08615	4.78582
23.61293	-6.08615	4.78582
23.61699	-6.08615	4.78582
23.62104	-6.10812	4.78582
23.62510	-6.10812	4.78582
23.62916	-6.10812	4.78582
23.63322	-6.08615	4.78582
23.63728	-6.10812	4.78582
23.64134	-6.10812	4.78582
23.64563	-6.10812	4.78582
23.64969	-6.10812	4.78582
23.65375	-6.10812	4.78582
23.65781	-6.10812	4.78582
23.66187	-6.10812	4.78582
23.66593	-6.10812	4.78582
23.66999	-6.10812	4.78582
23.67405	-6.10812	4.78582
23.67812	-6.10812	4.78582
23.68217	-6.13009	4.78582
23.68623	-6.13009	4.78582
23.69029	-6.13009	4.78582
23.69435	-6.13009	4.78582
23.69841	-6.13009	4.78582
23.70247	-6.13009	4.78582
23.70652	-6.13009	4.78582
23.71058	-6.15207	4.78582
23.71464	-6.13009	4.78582
23.71870	-6.13009	4.78582
23.72276	-6.15207	4.78582
23.72681	-6.13009	4.78582
23.73087	-6.13009	4.78582
23.73494	-6.15207	4.78582
23.73899	-6.15207	4.78582
23.74305	-6.15207	4.78582
23.74733	-6.15207	4.78582
23.75139	-6.15207	4.78582
23.75545	-6.15207	4.78582
23.75951	-6.15207	4.78582
23.76357	-6.15207	4.78582
23.76763	-6.17404	4.78582
23.77169	-6.15207	4.78582
23.77576	-6.17404	4.78582
23.77982	-6.17404	4.78582
23.78387	-6.17404	4.78582
23.78794	-6.17404	4.78582
23.79200	-6.17404	4.78582
23.79606	-6.19601	4.78582
23.80012	-6.19601	4.78582
23.80418	-6.19601	4.78582
23.80824	-6.19601	4.78582
23.81230	-6.19601	4.78582
23.81632	-6.19601	4.78582
23.82038	-6.19601	4.78582
23.82444	-6.19601	4.78582
23.82850	-6.19601	4.78582
23.83256	-6.19601	4.78582
23.83662	-6.21798	4.78582
23.84068	-6.21798	4.78582
23.84473	-6.21798	4.78582
23.84902	-6.21798	4.78582
23.85308	-6.21798	4.78582
23.85714	-6.21798	4.78582
23.86120	-6.21798	4.78582
23.86525	-6.23996	4.78582
23.86931	-6.23996	4.78582
23.87337	-6.23996	4.78582
23.87743	-6.23996	4.78582
23.88149	-6.23996	4.78582
23.88555	-6.23996	4.78582
23.88960	-6.23996	4.78582
23.89366	-6.26193	4.78582
23.89772	-6.26193	4.78582
23.90178	-6.26193	4.78582
23.90583	-6.26193	4.78582
23.90989	-6.26193	4.78582
23.91395	-6.26193	4.78582
23.91800	-6.26193	4.78582
23.92206	-6.26193	4.78582
23.92612	-6.28390	4.78582
23.93017	-6.28390	4.78582
23.93423	-6.28390	4.78582
23.93830	-6.28390	4.78582
23.94235	-6.28390	4.78582
23.94641	-6.28390	4.78582
23.95070	-6.30588	4.78582
23.95476	-6.30588	4.78582
23.95882	-6.30588	4.78582
23.96288	-6.30588	4.78582
23.96693	-6.30588	4.78582
23.97099	-6.32785	4.78582
23.97505	-6.32785	4.78582
23.97911	-6.32785	4.78582
23.98318	-6.32785	4.78582
23.98724	-6.32785	4.78582
23.99129	-6.34982	4.78582
23.99535	-6.34982	4.78582
23.99941	-6.34982	4.78582
24.00346	-6.34982	4.78582
24.00752	-6.34982	4.78582
24.01158	-6.34982	4.78582
24.01564	-6.34982	4.78582
24.01969	-6.34982	4.78582
24.02375	-6.34982	4.78582
24.02781	-6.34982	4.78582
24.03186	-6.37179	4.78582
24.03592	-6.37179	4.78582
24.03998	-6.37179	4.78582
24.04404	-6.37179	4.78582
24.04809	-6.37179	4.78582
24.05239	-6.37179	4.78582
24.05645	-6.39377	4.78582
24.06051	-6.39377	4.78582
24.06457	-6.37179	4.78582
24.06862	-6.39377	4.78582
24.07268	-6.39377	4.78582
24.07674	-6.39377	4.78582
24.08080	-6.39377	4.78582
24.08485	-6.39377	4.78582
24.08891	-6.39377	4.78582
24.09297	-6.39377	4.78582
24.09702	-6.41574	4.78582
24.10108	-6.41574	4.78582
24.10514	-6.41574	4.78582
24.10921	-6.41574	4.78582
24.11329	-6.41574	4.78582
24.11737	-6.41574	4.78582
24.12143	-6.43771	4.78582
24.12551	-6.43771	4.78582
24.12960	-6.43771	4.78582
24.13367	-6.43771	4.78582
24.13773	-6.43771	4.78582
24.14181	-6.43771	4.78582
24.14590	-6.43771	4.78582
24.14996	-6.45968	4.78582
24.15425	-6.43771	4.78582
24.15834	-6.43771	4.78582
24.16244	-6.43771	4.78582
24.16656	-6.45968	4.78582
24.17062	-6.45968	4.78582
24.17472	-6.43771	4.78582
24.17883	-6.45968	4.78582
24.18290	-6.45968	4.78582
24.18696	-6.45968	4.78582
24.19104	-6.45968	4.78582
24.19511	-6.45968	4.78582
24.19917	-6.48166	4.78582
24.20323	-6.45968	4.78582
24.20740	-6.45968	4.78582
24.21150	-6.48166	4.78582
24.21560	-6.48166	4.78582
24.21967	-6.45968	4.78582
24.22376	-6.45968	4.78582
24.22787	-6.48166	4.78582
24.23195	-6.48166	4.78582
24.23601	-6.48166	4.78582
24.24007	-6.48166	4.78582
24.24415	-6.48166	4.78582
24.24821	-6.48166	4.78582
24.25234	-6.48166	4.78582
24.25690	-6.48166	4.78582
24.26102	-6.48166	4.78582
24.26510	-6.48166	4.78582
24.26915	-6.48166	4.78582
24.27322	-6.48166	4.78582
24.27730	-6.48166	4.78582
24.28136	-6.48166	4.78582
24.28545	-6.50363	4.78582
24.28952	-6.50363	4.78582
24.29365	-6.50363	4.78582
24.29774	-6.50363	4.78582
24.30180	-6.50363	4.78582
24.30587	-6.48166	4.78582
24.30996	-6.50363	4.78582
24.31402	-6.50363	4.78582
24.31808	-6.50363	4.78582
24.32222	-6.48166	4.78582
24.32631	-6.48166	4.78582
24.33041	-6.50363	4.78582
24.33447	-6.48166	4.78582
24.33854	-6.48166	4.78582
24.34261	-6.50363	4.78582
24.34667	-6.50363	4.78582
24.35073	-6.48166	4.78582
24.35488	-6.50363	4.78582
24.35991	-6.50363	4.78582
24.36398	-6.48166	4.78582
24.36805	-6.50363	4.78582
24.37211	-6.48166	4.78582
24.37618	-6.48166	4.78582
24.38024	-6.48166	4.78582
24.38439	-6.48166	4.78582
24.38847	-6.50363	4.78582
24.39258	-6.48166	4.78582
24.39667	-6.48166	4.78582
24.40075	-6.48166	4.78582
24.40481	-6.48166	4.78582
24.40887	-6.48166	4.78582
24.41293	-6.48166	4.78582
24.41705	-6.48166	4.78582
24.42115	-6.48166	4.78582
24.42522	-6.48166	4.78582
24.42929	-6.48166	4.78582
24.43336	-6.48166	4.78582
24.43742	-6.48166	4.78582
24.44148	-6.48166	4.78582
24.44554	-6.48166	4.78582
24.44963	-6.48166	4.78582
24.45372	-6.48166	4.78582
24.45780	-6.48166	4.78582
24.46215	-6.45968	4.78582
24.46621	-6.45968	4.78582
24.47027	-6.45968	4.78582
24.47433	-6.48166	4.78582
24.47839	-6.45968	4.78582
24.48244	-6.48166	4.78582
24.48650	-6.48166	4.78582
24.49057	-6.45968	4.78582
24.49464	-6.45968	4.78582
24.49869	-6.45968	4.78582
24.50275	-6.45968	4.78582
24.50681	-6.45968	4.78582
24.51087	-6.45968	4.78582
24.51492	-6.45968	4.78582
24.51898	-6.43771	4.78582
24.52304	-6.43771	4.78582
24.52710	-6.43771	4.78582
24.53116	-6.43771	4.78582
24.53521	-6.43771	4.78582
24.53927	-6.43771	4.78582
24.54333	-6.43771	4.78582
24.54739	-6.43771	4.78582
24.55144	-6.43771	4.78582
24.55549	-6.41574	4.78582
24.55955	-6.43771	4.78582
24.56377	-6.41574	4.78582
24.56783	-6.41574	4.78582
24.57188	-6.41574	4.78582
24.57594	-6.41574	4.78582
24.58000	-6.41574	4.78582
24.58405	-6.39377	4.78582
24.58811	-6.41574	4.78582
24.59218	-6.41574	4.78582
24.59624	-6.39377	4.78582
24.60029	-6.39377	4.78582
24.60432	-6.39377	4.78582
24.60838	-6.39377	4.78582
24.61243	-6.39377	4.78582
24.61649	-6.39377	4.78582
24.62055	-6.37179	4.78582
24.62461	-6.37179	4.78582
24.62866	-6.37179	4.78582
24.63272	-6.37179	4.78582
24.63677	-6.37179	4.78582
24.64083	-6.37179	4.78582
24.64488	-6.34982	4.78582
24.64894	-6.34982	4.78582
24.65299	-6.34982	4.78582
24.65705	-6.34982	4.78582
24.66111	-6.34982	4.78582
24.66533	-6.34982	4.78582
24.66939	-6.32785	4.78582
24.67345	-6.32785	4.78582
24.67750	-6.32785	4.78582
24.68156	-6.32785	4.78582
24.68562	-6.32785	4.78582
24.68968	-6.32785	4.78582
24.69374	-6.30588	4.78582
24.69780	-6.30588	4.78582
24.70186	-6.30588	4.78582
24.70592	-6.30588	4.78582
24.70997	-6.30588	4.78582
24.71403	-6.28390	4.78582
24.71809	-6.28390	4.78582
24.72214	-6.28390	4.78582
24.72620	-6.28390	4.78582
24.73025	-6.28390	4.78582
24.73431	-6.28390	4.78582
24.73836	-6.28390	4.78582
24.74242	-6.26193	4.78582
24.74647	-6.26193	4.78582
24.75053	-6.26193	4.78582
24.75459	-6.23996	4.78582
24.75864	-6.26193	4.78582
24.76270	-6.26193	4.78582
24.76692	-6.23996	4.78582
24.77098	-6.23996	4.78582
24.77503	-6.23996	4.78582
24.77909	-6.21798	4.78582
24.78315	-6.21798	4.78582
24.78720	-6.21798	4.78582
24.79126	-6.21798	4.78582
24.79532	-6.21798	4.78582
24.79938	-6.19601	4.78582
24.80344	-6.19601	4.78582
24.80750	-6.19601	4.78582
24.81156	-6.19601	4.78582
24.81561	-6.19601	4.78582
24.81967	-6.17404	4.78582
24.82372	-6.17404	4.78582
24.82778	-6.17404	4.78582
24.83184	-6.17404	4.78582
24.83590	-6.17404	4.78582
24.83995	-6.15207	4.78582
24.84401	-6.15207	4.78582
24.84807	-6.15207	4.78582
24.85212	-6.15207	4.78582
24.85618	-6.13009	4.78582
24.86024	-6.13009	4.78582
24.86429	-6.13009	4.78582
24.86848	-6.13009	4.78582
24.87254	-6.13009	4.78582
24.87659	-6.13009	4.78582
24.88065	-6.10812	4.78582
24.88470	-6.10812	4.78582
24.88876	-6.10812	4.78582
24.89281	-6.10812	4.78582
24.89687	-6.08615	4.78582
24.90093	-6.08615	4.78582
24.90498	-6.08615	4.78582
24.90904	-6.08615	4.78582
24.91309	-6.08615	4.78582
24.91715	-6.06418	4.78582
24.92120	-6.06418	4.78582
24.92526	-6.06418	4.78582
24.92931	-6.06418	4.78582
24.93336	-6.06418	4.78582
24.93742	-6.06418	4.78582
24.94147	-6.04220	4.78582
24.94553	-6.04220	4.78582
24.94958	-6.04220	4.78582
24.95364	-6.04220	4.78582
24.95769	-6.04220	4.78582
24.96174	-6.04220	4.78582
24.96580	-6.02023	4.78582
24.97003	-6.02023	4.78582
24.97409	-5.99826	4.78582
24.97814	-5.99826	4.78582
24.98220	-5.99826	4.78582
24.98625	-5.99826	4.78582
24.99031	-5.99826	4.78582
24.99436	-5.99826	4.78582
24.99842	-5.97629	4.78582
25.00248	-5.97629	4.78582
25.00654	-5.97629	4.78582
25.01059	-5.97629	4.78582
25.01465	-5.97629	4.78582
25.01870	-5.97629	4.78582
25.02276	-5.95431	4.78582
25.02681	-5.95431	4.78582
25.03087	-5.95431	4.78582
25.03492	-5.95431	4.78582
25.03898	-5.95431	4.78582
25.04303	-5.95431	4.78582
25.04708	-5.95431	4.78582
25.05114	-5.93234	4.78582
25.05519	-5.93234	4.78582
25.05925	-5.93234	4.78582
25.06330	-5.93234	4.78582
25.06736	-5.93234	4.78582
25.07159	-5.93234	4.78582
25.07564	-5.93234	4.78582
25.07970	-5.93234	4.78582
25.08375	-5.93234	4.78582
25.08781	-5.91037	4.78582
25.09186	-5.91037	4.78582
25.09592	-5.91037	4.78582
25.09998	-5.91037	4.78582
25.10403	-5.91037	4.78582
25.10809	-5.91037	4.78582
25.11214	-5.91037	4.78582
25.11620	-5.91037	4.78582
25.12025	-5.91037	4.78582
25.12431	-5.88839	4.78582
25.12837	-5.88839	4.78582
25.13242	-5.88839	4.78582
25.13648	-5.88839	4.78582
25.14053	-5.88839	4.78582
25.14458	-5.88839	4.78582
25.14864	-5.88839	4.78582
25.15269	-5.88839	4.78582
25.15675	-5.88839	4.78582
25.16080	-5.88839	4.78582
25.16486	-5.88839	4.78582
25.16891	-5.86642	4.78582
25.17315	-5.86642	4.78582
25.17721	-5.86642	4.78582
25.18126	-5.86642	4.78582
25.18532	-5.86642	4.78582
25.18937	-5.86642	4.78582
25.19343	-5.86642	4.78582
25.19748	-5.86642	4.78582
25.20154	-5.86642	4.78582
25.20560	-5.86642	4.78582
25.20965	-5.86642	4.78582
25.21370	-5.86642	4.78582
25.21776	-5.86642	4.78582
25.22181	-5.86642	4.78582
25.22587	-5.86642	4.78582
25.22992	-5.86642	4.78582
25.23398	-5.86642	4.78582
25.23803	-5.86642	4.78582
25.24208	-5.86642	4.78582
25.24614	-5.86642	4.78582
25.25019	-5.86642	4.78582
25.25425	-5.84445	4.78582
25.25830	-5.84445	4.78582
25.26236	-5.84445	4.78582
25.26641	-5.84445	4.78582
25.27046	-5.84445	4.78582
25.27469	-5.84445	4.78582
25.27875	-5.84445	4.78582
25.28281	-5.84445	4.78582
25.28686	-5.84445	4.78582
25.29093	-5.86642	4.78582
25.29498	-5.86642	4.78582
25.29904	-5.84445	4.78582
25.30310	-5.84445	4.78582
25.30716	-5.84445	4.78582
25.31122	-5.84445	4.78582
25.31527	-5.84445	4.78582
25.31933	-5.84445	4.78582
25.32339	-5.86642	4.78582
25.32744	-5.84445	4.78582
25.33150	-5.86642	4.78582
25.33555	-5.86642	4.78582
25.33961	-5.84445	4.78582
25.34367	-5.84445	4.78582
25.34773	-5.86642	4.78582
25.35178	-5.86642	4.78582
25.35584	-5.86642	4.78582
25.35990	-5.86642	4.78582
25.36395	-5.86642	4.78582
25.36801	-5.86642	4.78582
25.37207	-5.86642	4.78582
25.37629	-5.86642	4.78582
25.38032	-5.86642	4.78582
25.38437	-5.86642	4.78582
25.38843	-5.86642	4.78582
25.39248	-5.86642	4.78582
25.39654	-5.86642	4.78582
25.40059	-5.86642	4.78582
25.40466	-5.86642	4.78582
25.40872	-5.88839	4.78582
25.41277	-5.86642	4.78582
25.41683	-5.88839	4.78582
25.42088	-5.88839	4.78582
25.42494	-5.88839	4.78582
25.42900	-5.88839	4.78582
25.43305	-5.88839	4.78582
25.43711	-5.88839	4.78582
25.44117	-5.88839	4.78582
25.44522	-5.88839	4.78582
25.44928	-5.88839	4.78582
25.45334	-5.91037	4.78582
25.45739	-5.91037	4.78582
25.46145	-5.88839	4.78582
25.46550	-5.88839	4.78582
25.46956	-5.91037	4.78582
25.47361	-5.91037	4.78582
25.47784	-5.91037	4.78582
25.48189	-5.93234	4.78582
25.48595	-5.93234	4.78582
25.49001	-5.91037	4.78582
25.49407	-5.93234	4.78582
25.49812	-5.93234	4.78582
25.50218	-5.93234	4.78582
25.50624	-5.93234	4.78582
25.51029	-5.93234	4.78582
25.51435	-5.93234	4.78582
25.51840	-5.93234	4.78582
25.52246	-5.95431	4.78582
25.52651	-5.95431	4.78582
25.53057	-5.95431	4.78582
25.53462	-5.95431	4.78582
25.53868	-5.95431	4.78582
25.54273	-5.95431	4.78582
25.54679	-5.97629	4.78582
25.55084	-5.97629	4.78582
25.55489	-5.97629	4.78582
25.55895	-5.97629	4.78582
25.56300	-5.97629	4.78582
25.56706	-5.97629	4.78582
25.57111	-5.97629	4.78582
25.57517	-5.99826	4.78582
25.57940	-5.99826	4.78582
25.58346	-5.99826	4.78582
25.58751	-6.02023	4.78582
25.59157	-6.02023	4.78582
25.59562	-6.02023	4.78582
25.59967	-6.02023	4.78582
25.60373	-6.02023	4.78582
25.60779	-6.02023	4.78582
25.61185	-6.02023	4.78582
25.61590	-6.02023	4.78582
25.61996	-6.04220	4.78582
25.62401	-6.04220	4.78582
25.62807	-6.04220	4.78582
25.63212	-6.04220	4.78582
25.63617	-6.04220	4.78582
25.64023	-6.04220	4.78582
25.64428	-6.06418	4.78582
25.64831	-6.06418	4.78582
25.65237	-6.06418	4.78582
25.65642	-6.06418	4.78582
25.66048	-6.06418	4.78582
25.66453	-6.06418	4.78582
25.66859	-6.08615	4.78582
25.67264	-6.08615	4.78582
25.67670	-6.08615	4.78582
25.68093	-6.08615	4.78582
25.68498	-6.08615	4.78582
25.68904	-6.10812	4.78582
25.69309	-6.10812	4.78582
25.69715	-6.10812	4.78582
25.70120	-6.10812	4.78582
25.70526	-6.10812	4.78582
25.70932	-6.10812	4.78582
25.71337	-6.13009	4.78582
25.71742	-6.13009	4.78582
25.72148	-6.13009	4.78582
25.72553	-6.13009	4.78582
25.72959	-6.13009	4.78582
25.73364	-6.13009	4.78582
25.73770	-6.13009	4.78582
25.74175	-6.13009	4.78582
25.74581	-6.15207	4.78582
25.74986	-6.15207	4.78582
25.75391	-6.15207	4.78582
25.75797	-6.15207	4.78582
25.76202	-6.15207	4.78582
25.76608	-6.15207	4.78582
25.77013	-6.15207	4.78582
25.77419	-6.15207	4.78582
25.77824	-6.15207	4.78582
25.78246	-6.17404	4.78582
25.78652	-6.17404	4.78582
25.79057	-6.17404	4.78582
25.79463	-6.17404	4.78582
25.79868	-6.19601	4.78582
25.80274	-6.19601	4.78582
25.80679	-6.19601	4.78582
25.81085	-6.19601	4.78582
25.81491	-6.19601	4.78582
25.81896	-6.19601	4.78582
25.82302	-6.21798	4.78582
25.82707	-6.21798	4.78582
25.83113	-6.21798	4.78582
25.83518	-6.21798	4.78582
25.83923	-6.21798	4.78582
25.84329	-6.21798	4.78582
25.84734	-6.21798	4.78582
25.85140	-6.21798	4.78582
25.85545	-6.21798	4.78582
25.85951	-6.21798	4.78582
25.86356	-6.21798	4.78582
25.86761	-6.21798	4.78582
25.87167	-6.21798	4.78582
25.87572	-6.21798	4.78582
25.87978	-6.23996	4.78582
25.88400	-6.21798	4.78582
25.88806	-6.21798	4.78582
25.89211	-6.21798	4.78582
25.89617	-6.23996	4.78582
25.90022	-6.23996	4.78582
25.90427	-6.23996	4.78582
25.90831	-6.26193	4.78582
25.91237	-6.26193	4.78582
25.91642	-6.23996	4.78582
25.92048	-6.23996	4.78582
25.92453	-6.26193	4.78582
25.92859	-6.26193	4.78582
25.93264	-6.26193	4.78582
25.93670	-6.26193	4.78582
25.94075	-6.26193	4.78582
25.94481	-6.26193	4.78582
25.94886	-6.26193	4.78582
25.95291	-6.26193	4.78582
25.95697	-6.26193	4.78582
25.96102	-6.26193	4.78582
25.96508	-6.26193	4.78582
25.96913	-6.26193	4.78582
25.97319	-6.26193	4.78582
25.97724	-6.26193	4.78582
25.98130	-6.26193	4.78582
25.98553	-6.26193	4.78582
25.98958	-6.26193	4.78582
25.99364	-6.28390	4.78582
25.99769	-6.28390	4.78582
26.00174	-6.28390	4.78582
26.00580	-6.26193	4.78582
26.00985	-6.28390	4.78582
26.01391	-6.28390	4.78582
26.01797	-6.28390	4.78582
26.02202	-6.28390	4.78582
26.02608	-6.28390	4.78582
26.03013	-6.28390	4.78582
26.03419	-6.28390	4.78582
26.03824	-6.30588	4.78582
26.04230	-6.30588	4.78582
26.04635	-6.28390	4.78582
26.05041	-6.28390	4.78582
26.05446	-6.28390	4.78582
26.05852	-6.28390	4.78582
26.06257	-6.28390	4.78582
26.06662	-6.28390	4.78582
26.07068	-6.28390	4.78582
26.07473	-6.28390	4.78582
26.07879	-6.28390	4.78582
26.08284	-6.28390	4.78582
26.08707	-6.28390	4.78582
26.09113	-6.28390	4.78582
26.09518	-6.28390	4.78582
26.09924	-6.28390	4.78582
26.10329	-6.28390	4.78582
26.10735	-6.28390	4.78582
26.11140	-6.30588	4.78582
26.11546	-6.28390	4.78582
26.11953	-6.28390	4.78582
26.12359	-6.28390	4.78582
26.12764	-6.28390	4.78582
26.13170	-6.28390	4.78582
26.13575	-6.28390	4.78582
26.13980	-6.30588	4.78582
26.14386	-6.30588	4.78582
26.14791	-6.28390	4.78582
26.15197	-6.28390	4.78582
26.15602	-6.28390	4.78582
26.16008	-6.30588	4.78582
26.16413	-6.30588	4.78582
26.16819	-6.30588	4.78582
26.17224	-6.30588	4.78582
26.17630	-6.28390	4.78582
26.18031	-6.30588	4.78582
26.18437	-6.30588	4.78582
26.18859	-6.30588	4.78582
26.19264	-6.28390	4.78582
26.19670	-6.30588	4.78582
26.20075	-6.30588	4.78582
26.20481	-6.30588	4.78582
26.20886	-6.28390	4.78582
26.21292	-6.30588	4.78582
26.21698	-6.28390	4.78582
26.22103	-6.28390	4.78582
26.22509	-6.28390	4.78582
26.22914	-6.28390	4.78582
26.23320	-6.30588	4.78582
26.23725	-6.28390	4.78582
26.24131	-6.30588	4.78582
26.24536	-6.28390	4.78582
26.24941	-6.28390	4.78582
26.25347	-6.28390	4.78582
26.25752	-6.28390	4.78582
26.26158	-6.28390	4.78582
26.26563	-6.28390	4.78582
26.26969	-6.28390	4.78582
26.27374	-6.28390	4.78582
26.27779	-6.28390	4.78582
26.28185	-6.28390	4.78582
26.28590	-6.28390	4.78582
26.29013	-6.28390	4.78582
26.29419	-6.28390	4.78582
26.29824	-6.28390	4.78582
26.30230	-6.28390	4.78582
26.30635	-6.28390	4.78582
26.31041	-6.28390	4.78582
26.31446	-6.28390	4.78582
26.31852	-6.28390	4.78582
26.32258	-6.28390	4.78582
26.32663	-6.28390	4.78582
26.33069	-6.26193	4.78582
26.33474	-6.26193	4.78582
26.33879	-6.28390	4.78582
26.34285	-6.26193	4.78582
26.34690	-6.26193	4.78582
26.35096	-6.26193	4.78582
26.35501	-6.26193	4.78582
26.35907	-6.28390	4.78582
26.36312	-6.26193	4.78582
26.36718	-6.26193	4.78582
26.37123	-6.26193	4.78582
26.37528	-6.26193	4.78582
26.37934	-6.26193	4.78582
26.38339	-6.26193	4.78582
26.38745	-6.26193	4.78582
26.39167	-6.26193	4.78582
26.39573	-6.26193	4.78582
26.39978	-6.26193	4.78582
26.40384	-6.26193	4.78582
26.40789	-6.26193	4.78582
26.41195	-6.23996	4.78582
26.41600	-6.23996	4.78582
26.42006	-6.23996	4.78582
26.42412	-6.23996	4.78582
26.42817	-6.23996	4.78582
26.43223	-6.23996	4.78582
26.43628	-6.23996	4.78582
26.44031	-6.23996	4.78582
26.44436	-6.23996	4.78582
26.44842	-6.23996	4.78582
26.45247	-6.23996	4.78582
26.45653	-6.23996	4.78582
26.46058	-6.23996	4.78582
26.46464	-6.21798	4.78582
26.46869	-6.21798	4.78582
26.47274	-6.21798	4.78582
26.47680	-6.21798	4.78582
26.48085	-6.21798	4.78582
26.48491	-6.21798	4.78582
26.48896	-6.21798	4.78582
26.49318	-6.21798	4.78582
26.49724	-6.21798	4.78582
26.50129	-6.19601	4.78582
26.50535	-6.19601	4.78582
26.50940	-6.19601	4.78582
26.51346	-6.19601	4.78582
26.51751	-6.19601	4.78582
26.52157	-6.19601	4.78582
26.52563	-6.19601	4.78582
26.52968	-6.19601	4.78582
26.53373	-6.19601	4.78582
26.53779	-6.17404	4.78582
26.54184	-6.19601	4.78582
26.54590	-6.17404	4.78582
26.54995	-6.17404	4.78582
26.55401	-6.17404	4.78582
26.55806	-6.19601	4.78582
26.56212	-6.17404	4.78582
26.56617	-6.17404	4.78582
26.57022	-6.17404	4.78582
26.57428	-6.17404	4.78582
26.57833	-6.15207	4.78582
26.58239	-6.15207	4.78582
26.58644	-6.17404	4.78582
26.59050	-6.17404	4.78582
26.59472	-6.15207	4.78582
26.59877	-6.15207	4.78582
26.60283	-6.15207	4.78582
26.60688	-6.15207	4.78582
26.61094	-6.15207	4.78582
26.61499	-6.15207	4.78582
26.61905	-6.13009	4.78582
26.62311	-6.13009	4.78582
26.62716	-6.13009	4.78582
26.63122	-6.13009	4.78582
26.63527	-6.13009	4.78582
26.63933	-6.13009	4.78582
26.64338	-6.10812	4.78582
26.64743	-6.10812	4.78582
26.65149	-6.10812	4.78582
26.65554	-6.10812	4.78582
26.65960	-6.10812	4.78582
26.66365	-6.10812	4.78582
26.66771	-6.10812	4.78582
26.67176	-6.10812	4.78582
26.67582	-6.10812	4.78582
26.67987	-6.08615	4.78582
26.68393	-6.08615	4.78582
26.68798	-6.08615	4.78582
26.69203	-6.08615	4.78582
26.69627	-6.08615	4.78582
26.70031	-6.08615	4.78582
26.70437	-6.06418	4.78582
26.70842	-6.06418	4.78582
26.71248	-6.06418	4.78582
26.71653	-6.06418	4.78582
26.72059	-6.06418	4.78582
26.72465	-6.06418	4.78582
26.72870	-6.06418	4.78582
26.73276	-6.04220	4.78582
26.73681	-6.04220	4.78582
26.74087	-6.04220	4.78582
26.74492	-6.04220	4.78582
26.74898	-6.04220	4.78582
26.75303	-6.02023	4.78582
26.75709	-6.02023	4.78582
26.76114	-6.02023	4.78582
26.76519	-6.02023	4.78582
26.76925	-6.02023	4.78582
26.77330	-6.02023	4.78582
26.77736	-5.99826	4.78582
26.78141	-5.99826	4.78582
26.78547	-5.99826	4.78582
26.78952	-5.99826	4.78582
26.79358	-5.99826	4.78582
26.79781	-5.99826	4.78582
26.80186	-5.99826	4.78582
26.80592	-5.99826	4.78582
26.80997	-5.97629	4.78582
26.81403	-5.97629	4.78582
26.81808	-5.97629	4.78582
26.82213	-5.97629	4.78582
26.82620	-5.97629	4.78582
26.83025	-5.97629	4.78582
26.83431	-5.97629	4.78582
26.83836	-5.95431	4.78582
26.84242	-5.95431	4.78582
26.84647	-5.95431	4.78582
26.85053	-5.95431	4.78582
26.85458	-5.95431	4.78582
26.85864	-5.95431	4.78582
26.86269	-5.93234	4.78582
26.86675	-5.93234	4.78582
26.87080	-5.95431	4.78582
26.87486	-5.93234	4.78582
26.87891	-5.93234	4.78582
26.88297	-5.93234	4.78582
26.88702	-5.93234	4.78582
26.89107	-5.93234	4.78582
26.89513	-5.93234	4.78582
26.89935	-5.93234	4.78582
26.90341	-5.91037	4.78582
26.90746	-5.91037	4.78582
26.91152	-5.91037	4.78582
26.91557	-5.91037	4.78582
26.91962	-5.91037	4.78582
26.92368	-5.91037	4.78582
26.92774	-5.91037	4.78582
26.93180	-5.91037	4.78582
26.93585	-5.88839	4.78582
26.93991	-5.88839	4.78582
26.94396	-5.88839	4.78582
26.94801	-5.88839	4.78582
26.95207	-5.88839	4.78582
26.95612	-5.88839	4.78582
26.96018	-5.88839	4.78582
26.96423	-5.88839	4.78582
26.96829	-5.88839	4.78582
26.97231	-5.88839	4.78582
26.97637	-5.86642	4.78582
26.98042	-5.86642	4.78582
26.98448	-5.86642	4.78582
26.98853	-5.88839	4.78582
26.99259	-5.86642	4.78582
26.99664	-5.86642	4.78582
27.00087	-5.86642	4.78582
27.00492	-5.86642	4.78582
27.00898	-5.86642	4.78582
27.01303	-5.86642	4.78582
27.01709	-5.86642	4.78582
27.02114	-5.86642	4.78582
27.02520	-5.86642	4.78582
27.02926	-5.86642	4.78582
27.03331	-5.86642	4.78582
27.03737	-5.86642	4.78582
27.04142	-5.86642	4.78582
27.04548	-5.86642	4.78582
27.04953	-5.86642	4.78582
27.05359	-5.86642	4.78582
27.05764	-5.86642	4.78582
27.06169	-5.86642	4.78582
27.06575	-5.86642	4.78582
27.06980	-5.86642	4.78582
27.07386	-5.86642	4.78582
27.07791	-5.86642	4.78582
27.08197	-5.86642	4.78582
27.08602	-5.86642	4.78582
27.09007	-5.86642	4.78582
27.09413	-5.86642	4.78582
27.09818	-5.86642	4.78582
27.10241	-5.86642	4.78582
27.10646	-5.86642	4.78582
27.11051	-5.86642	4.78582
27.11457	-5.86642	4.78582
27.11862	-5.86642	4.78582
27.12268	-5.86642	4.78582
27.12673	-5.86642	4.78582
27.13079	-5.86642	4.78582
27.13485	-5.86642	4.78582
27.13890	-5.86642	4.78582
27.14296	-5.86642	4.78582
27.14701	-5.86642	4.78582
27.15107	-5.86642	4.78582
27.15512	-5.86642	4.78582
27.15918	-5.86642	4.78582
27.16323	-5.86642	4.78582
27.16729	-5.86642	4.78582
27.17134	-5.86642	4.78582
27.17539	-5.86642	4.78582
27.17945	-5.86642	4.78582
27.18350	-5.86642	4.78582
27.18756	-5.86642	4.78582
27.19161	-5.86642	4.78582
27.19567	-5.86642	4.78582
27.19972	-5.86642	4.78582
27.20394	-5.86642	4.78582
27.20800	-5.86642	4.78582
27.21205	-5.86642	4.78582
27.21611	-5.86642	4.78582
27.22016	-5.86642	4.78582
27.22422	-5.86642	4.78582
27.22827	-5.86642	4.78582
27.23232	-5.86642	4.78582
27.23638	-5.86642	4.78582
27.24043	-5.86642	4.78582
27.24448	-5.86642	4.78582
27.24854	-5.86642	4.78582
27.25259	-5.86642	4.78582
27.25665	-5.86642	4.78582
27.26070	-5.86642	4.78582
27.26476	-5.86642	4.78582
27.26881	-5.86642	4.78582
27.27286	-5.86642	4.78582
27.27692	-5.86642	4.78582
27.28097	-5.88839	4.78582
27.28503	-5.88839	4.78582
27.28908	-5.88839	4.78582
27.29314	-5.88839	4.78582
27.29719	-5.88839	4.78582
27.30124	-5.88839	4.78582
27.30546	-5.88839	4.78582
27.30952	-5.88839	4.78582
27.31357	-5.88839	4.78582
27.31763	-5.88839	4.78582
27.32168	-5.88839	4.78582
27.32574	-5.88839	4.78582
27.32979	-5.88839	4.78582
27.33385	-5.88839	4.78582
27.33791	-5.88839	4.78582
27.34196	-5.88839	4.78582
27.34602	-5.91037	4.78582
27.35007	-5.88839	4.78582
27.35412	-5.88839	4.78582
27.35818	-5.88839	4.78582
27.36223	-5.91037	4.78582
27.36629	-5.91037	4.78582
27.37034	-5.91037	4.78582
27.37440	-5.91037	4.78582
27.37845	-5.91037	4.78582
27.38251	-5.91037	4.78582
27.38656	-5.91037	4.78582
27.39061	-5.91037	4.78582
27.39467	-5.91037	4.78582
27.39872	-5.91037	4.78582
27.40278	-5.91037	4.78582
27.40700	-5.93234	4.78582
27.41106	-5.91037	4.78582
27.41511	-5.91037	4.78582
27.41917	-5.91037	4.78582
27.42322	-5.93234	4.78582
27.42728	-5.93234	4.78582
27.43133	-5.93234	4.78582
27.43539	-5.93234	4.78582
27.43945	-5.93234	4.78582
27.44350	-5.93234	4.78582
27.44755	-5.93234	4.78582
27.45161	-5.93234	4.78582
27.45566	-5.93234	4.78582
27.45972	-5.93234	4.78582
27.46377	-5.93234	4.78582
27.46783	-5.93234	4.78582
27.47188	-5.93234	4.78582
27.47593	-5.93234	4.78582
27.47999	-5.93234	4.78582
27.48404	-5.93234	4.78582
27.48810	-5.93234	4.78582
27.49215	-5.93234	4.78582
27.49621	-5.93234	4.78582
27.50026	-5.93234	4.78582
27.50431	-5.93234	4.78582
27.50853	-5.95431	4.78582
27.51259	-5.95431	4.78582
27.51664	-5.93234	4.78582
27.52070	-5.95431	4.78582
27.52475	-5.95431	4.78582
27.52880	-5.95431	4.78582
27.53286	-5.95431	4.78582
27.53692	-5.95431	4.78582
27.54097	-5.95431	4.78582
27.54503	-5.95431	4.78582
27.54909	-5.95431	4.78582
27.55314	-5.95431	4.78582
27.55720	-5.95431	4.78582
27.56125	-5.95431	4.78582
27.56531	-5.95431	4.78582
27.56936	-5.95431	4.78582
27.57342	-5.95431	4.78582
27.57747	-5.95431	4.78582
27.58153	-5.95431	4.78582
27.58558	-5.95431	4.78582
27.58963	-5.95431	4.78582
27.59369	-5.95431	4.78582
27.59774	-5.95431	4.78582
27.60180	-5.95431	4.78582
27.60585	-5.95431	4.78582
27.61008	-5.95431	4.78582
27.61413	-5.95431	4.78582
27.61819	-5.95431	4.78582
27.62224	-5.95431	4.78582
27.62630	-5.95431	4.78582
27.63035	-5.95431	4.78582
27.63441	-5.97629	4.78582
27.63847	-5.95431	4.78582
27.64252	-5.95431	4.78582
27.64658	-5.97629	4.78582
27.65063	-5.97629	4.78582
27.65469	-5.95431	4.78582
27.65874	-5.95431	4.78582
27.66279	-5.95431	4.78582
27.66685	-5.95431	4.78582
27.67090	-5.95431	4.78582
27.67496	-5.95431	4.78582
27.67901	-5.95431	4.78582
27.68307	-5.95431	4.78582
27.68712	-5.95431	4.78582
27.69118	-5.95431	4.78582
27.69523	-5.95431	4.78582
27.69929	-5.95431	4.78582
27.70334	-5.95431	4.78582
27.70739	-5.95431	4.78582
27.71162	-5.95431	4.78582
27.71568	-5.95431	4.78582
27.71973	-5.95431	4.78582
27.72379	-5.95431	4.78582
27.72784	-5.93234	4.78582
27.73190	-5.95431	4.78582
27.73595	-5.93234	4.78582
27.74001	-5.93234	4.78582
27.74407	-5.95431	4.78582
27.74812	-5.95431	4.78582
27.75218	-5.93234	4.78582
27.75623	-5.95431	4.78582
27.76029	-5.95431	4.78582
27.76431	-5.93234	4.78582
27.76836	-5.93234	4.78582
27.77242	-5.93234	4.78582
27.77647	-5.93234	4.78582
27.78053	-5.93234	4.78582
27.78458	-5.93234	4.78582
27.78864	-5.93234	4.78582
27.79269	-5.93234	4.78582
27.79675	-5.91037	4.78582
27.80080	-5.93234	4.78582
27.80485	-5.93234	4.78582
27.80891	-5.93234	4.78582
27.81313	-5.91037	4.78582
27.81719	-5.93234	4.78582
27.82124	-5.93234	4.78582
27.82530	-5.93234	4.78582
27.82935	-5.93234	4.78582
27.83341	-5.91037	4.78582
27.83746	-5.91037	4.78582
27.84152	-5.91037	4.78582
27.84558	-5.91037	4.78582
27.84963	-5.91037	4.78582
27.85368	-5.91037	4.78582
27.85774	-5.91037	4.78582
27.86179	-5.91037	4.78582
27.86585	-5.91037	4.78582
27.86990	-5.91037	4.78582
27.87396	-5.91037	4.78582
27.87801	-5.91037	4.78582
27.88206	-5.91037	4.78582
27.88612	-5.91037	4.78582
27.89017	-5.91037	4.78582
27.89423	-5.91037	4.78582
27.89828	-5.91037	4.78582
27.90234	-5.88839	4.78582
27.90639	-5.88839	4.78582
27.91044	-5.88839	4.78582
27.91467	-5.88839	4.78582
27.91872	-5.88839	4.78582
27.92278	-5.91037	4.78582
27.92683	-5.88839	4.78582
27.93089	-5.88839	4.78582
27.93494	-5.88839	4.78582
27.93900	-5.88839	4.78582
27.94306	-5.88839	4.78582
27.94711	-5.88839	4.78582
27.95117	-5.88839	4.78582
27.95522	-5.88839	4.78582
27.95928	-5.88839	4.78582
27.96333	-5.88839	4.78582
27.96738	-5.88839	4.78582
27.97144	-5.88839	4.78582
27.97549	-5.88839	4.78582
27.97955	-5.88839	4.78582
27.98361	-5.86642	4.78582
27.98767	-5.88839	4.78582
27.99172	-5.88839	4.78582
27.99578	-5.88839	4.78582
27.99983	-5.86642	4.78582
28.00389	-5.86642	4.78582
28.00794	-5.88839	4.78582
28.01199	-5.88839	4.78582
28.01623	-5.88839	4.78582
28.02028	-5.86642	4.78582
28.02432	-5.88839	4.78582
28.02837	-5.86642	4.78582
28.03243	-5.86642	4.78582
28.03648	-5.86642	4.78582
28.04054	-5.86642	4.78582
28.04460	-5.86642	4.78582
28.04865	-5.86642	4.78582
28.05270	-5.86642	4.78582
28.05676	-5.88839	4.78582
28.06081	-5.88839	4.78582
28.06487	-5.86642	4.78582
28.06892	-5.86642	4.78582
28.07298	-5.86642	4.78582
28.07703	-5.86642	4.78582
28.08108	-5.86642	4.78582
28.08514	-5.86642	4.78582
28.08919	-5.86642	4.78582
28.09325	-5.86642	4.78582
28.09730	-5.86642	4.78582
28.10136	-5.86642	4.78582
28.10541	-5.86642	4.78582
28.10947	-5.86642	4.78582
28.11352	-5.86642	4.78582
28.11775	-5.86642	4.78582
28.12180	-5.86642	4.78582
28.12586	-5.86642	4.78582
28.12991	-5.86642	4.78582
28.13397	-5.86642	4.78582
28.13802	-5.86642	4.78582
28.14208	-5.86642	4.78582
28.14614	-5.86642	4.78582
28.15019	-5.86642	4.78582
28.15425	-5.86642	4.78582
28.15830	-5.86642	4.78582
28.16236	-5.86642	4.78582
28.16641	-5.86642	4.78582
28.17046	-5.86642	4.78582
28.17452	-5.86642	4.78582
28.17857	-5.86642	4.78582
28.18263	-5.86642	4.78582
28.18668	-5.86642	4.78582
28.19074	-5.86642	4.78582
28.19479	-5.86642	4.78582
28.19884	-5.86642	4.78582
28.20290	-5.86642	4.78582
28.20695	-5.86642	4.78582
28.21101	-5.86642	4.78582
28.21506	-5.86642	4.78582
28.21929	-5.86642	4.78582
28.22335	-5.86642	4.78582
28.22740	-5.88839	4.78582
28.23146	-5.88839	4.78582
28.23552	-5.86642	4.78582
28.23957	-5.86642	4.78582
28.24363	-5.88839	4.78582
28.24769	-5.88839	4.78582
28.25174	-5.88839	4.78582
28.25580	-5.88839	4.78582
28.25985	-5.88839	4.78582
28.26391	-5.88839	4.78582
28.26796	-5.88839	4.78582
28.27202	-5.88839	4.78582
28.27607	-5.88839	4.78582
28.28013	-5.88839	4.78582
28.28418	-5.88839	4.78582
28.28824	-5.88839	4.78582
28.29229	-5.88839	4.78582
28.29631	-5.88839	4.78582
28.30037	-5.88839	4.78582
28.30442	-5.88839	4.78582
28.30848	-5.88839	4.78582
28.31253	-5.88839	4.78582
28.31659	-5.88839	4.78582
28.32082	-5.91037	4.78582
28.32488	-5.91037	4.78582
28.32893	-5.91037	4.78582
28.33298	-5.91037	4.78582
28.33704	-5.91037	4.78582
28.34109	-5.91037	4.78582
28.34515	-5.91037	4.78582
28.34921	-5.91037	4.78582
28.35327	-5.91037	4.78582
28.35732	-5.91037	4.78582
28.36138	-5.91037	4.78582
28.36543	-5.93234	4.78582
28.36948	-5.91037	4.78582
28.37354	-5.93234	4.78582
28.37759	-5.93234	4.78582
28.38165	-5.93234	4.78582
28.38570	-5.93234	4.78582
28.38976	-5.95431	4.78582
28.39381	-5.95431	4.78582
28.39786	-5.95431	4.78582
28.40192	-5.95431	4.78582
28.40597	-5.95431	4.78582
28.41003	-5.95431	4.78582
28.41409	-5.95431	4.78582
28.41814	-5.95431	4.78582
28.42238	-5.97629	4.78582
28.42644	-5.95431	4.78582
28.43049	-5.97629	4.78582
28.43455	-5.97629	4.78582
28.43861	-5.97629	4.78582
28.44266	-5.97629	4.78582
28.44672	-5.97629	4.78582
28.45078	-5.97629	4.78582
28.45484	-5.99826	4.78582
28.45890	-5.99826	4.78582
28.46296	-5.99826	4.78582
28.46701	-5.99826	4.78582
28.47107	-5.99826	4.78582
28.47513	-6.02023	4.78582
28.47918	-6.02023	4.78582
28.48324	-6.02023	4.78582
28.48729	-6.04220	4.78582
28.49135	-6.04220	4.78582
28.49541	-6.04220	4.78582
28.49946	-6.04220	4.78582
28.50352	-6.04220	4.78582
28.50757	-6.06418	4.78582
28.51163	-6.04220	4.78582
28.51568	-6.06418	4.78582
28.51974	-6.06418	4.78582
28.52397	-6.06418	4.78582
28.52803	-6.06418	4.78582
28.53208	-6.08615	4.78582
28.53614	-6.08615	4.78582
28.54020	-6.08615	4.78582
28.54425	-6.08615	4.78582
28.54831	-6.08615	4.78582
28.55237	-6.08615	4.78582
28.55643	-6.10812	4.78582
28.56049	-6.10812	4.78582
28.56455	-6.10812	4.78582
28.56860	-6.10812	4.78582
28.57266	-6.10812	4.78582
28.57672	-6.13009	4.78582
28.58077	-6.13009	4.78582
28.58483	-6.13009	4.78582
28.58888	-6.13009	4.78582
28.59294	-6.13009	4.78582
28.59700	-6.13009	4.78582
28.60105	-6.15207	4.78582
28.60511	-6.15207	4.78582
28.60916	-6.15207	4.78582
28.61321	-6.15207	4.78582
28.61727	-6.15207	4.78582
28.62133	-6.15207	4.78582
28.62555	-6.17404	4.78582
28.62961	-6.17404	4.78582
28.63366	-6.17404	4.78582
28.63772	-6.17404	4.78582
28.64178	-6.19601	4.78582
28.64583	-6.19601	4.78582
28.64989	-6.19601	4.78582
28.65396	-6.19601	4.78582
28.65802	-6.19601	4.78582
28.66207	-6.21798	4.78582
28.66613	-6.21798	4.78582
28.67019	-6.21798	4.78582
28.67425	-6.21798	4.78582
28.67831	-6.21798	4.78582
28.68236	-6.21798	4.78582
28.68642	-6.21798	4.78582
28.69048	-6.23996	4.78582
28.69454	-6.23996	4.78582
28.69859	-6.23996	4.78582
28.70265	-6.23996	4.78582
28.70671	-6.26193	4.78582
28.71077	-6.26193	4.78582
28.71482	-6.26193	4.78582
28.71888	-6.26193	4.78582
28.72294	-6.26193	4.78582
28.72717	-6.26193	4.78582
28.73123	-6.28390	4.78582
28.73529	-6.28390	4.78582
28.73935	-6.28390	4.78582
28.74340	-6.28390	4.78582
28.74746	-6.28390	4.78582
28.75152	-6.28390	4.78582
28.75559	-6.28390	4.78582
28.75965	-6.28390	4.78582
28.76371	-6.30588	4.78582
28.76777	-6.30588	4.78582
28.77183	-6.30588	4.78582
28.77588	-6.30588	4.78582
28.77994	-6.30588	4.78582
28.78400	-6.30588	4.78582
28.78806	-6.32785	4.78582
28.79212	-6.32785	4.78582
28.79618	-6.32785	4.78582
28.80023	-6.32785	4.78582
28.80433	-6.32785	4.78582
28.80838	-6.32785	4.78582
28.81245	-6.34982	4.78582
28.81651	-6.34982	4.78582
28.82056	-6.34982	4.78582
28.82462	-6.34982	4.78582
28.82888	-6.34982	4.78582
28.83294	-6.34982	4.78582
28.83699	-6.37179	4.78582
28.84106	-6.34982	4.78582
28.84512	-6.37179	4.78582
28.84917	-6.37179	4.78582
28.85323	-6.37179	4.78582
28.85730	-6.37179	4.78582
28.86136	-6.37179	4.78582
28.86542	-6.39377	4.78582
28.86947	-6.39377	4.78582
28.87353	-6.39377	4.78582
28.87759	-6.39377	4.78582
28.88165	-6.39377	4.78582
28.88571	-6.39377	4.78582
28.88976	-6.39377	4.78582
28.89382	-6.39377	4.78582
28.89788	-6.39377	4.78582
28.90193	-6.41574	4.78582
28.90599	-6.41574	4.78582
28.91004	-6.41574	4.78582
28.91411	-6.41574	4.78582
28.91816	-6.43771	4.78582
28.92222	-6.41574	4.78582
28.92628	-6.43771	4.78582
28.93051	-6.43771	4.78582
28.93457	-6.43771	4.78582
28.93862	-6.43771	4.78582
28.94268	-6.43771	4.78582
28.94673	-6.43771	4.78582
28.95079	-6.43771	4.78582
28.95484	-6.43771	4.78582
28.95890	-6.43771	4.78582
28.96296	-6.45968	4.78582
28.96702	-6.45968	4.78582
28.97107	-6.45968	4.78582
28.97512	-6.45968	4.78582
28.97918	-6.45968	4.78582
28.98323	-6.45968	4.78582
28.98729	-6.45968	4.78582
28.99135	-6.45968	4.78582
28.99540	-6.45968	4.78582
28.99946	-6.45968	4.78582
29.00351	-6.45968	4.78582
29.00757	-6.48166	4.78582
29.01162	-6.48166	4.78582
29.01568	-6.48166	4.78582
29.01973	-6.48166	4.78582
29.02379	-6.48166	4.78582
29.02784	-6.48166	4.78582
29.03207	-6.48166	4.78582
29.03613	-6.48166	4.78582
29.04019	-6.48166	4.78582
29.04424	-6.48166	4.78582
29.04830	-6.48166	4.78582
29.05232	-6.50363	4.78582
29.05638	-6.50363	4.78582
29.06044	-6.50363	4.78582
29.06449	-6.48166	4.78582
29.06855	-6.48166	4.78582
29.07261	-6.48166	4.78582
29.07666	-6.50363	4.78582
29.08072	-6.50363	4.78582
29.08477	-6.50363	4.78582
29.08883	-6.50363	4.78582
29.09288	-6.50363	4.78582
29.09694	-6.50363	4.78582
29.10099	-6.50363	4.78582
29.10505	-6.50363	4.78582
29.10910	-6.50363	4.78582
29.11316	-6.48166	4.78582
29.11721	-6.50363	4.78582
29.12127	-6.50363	4.78582
29.12532	-6.50363	4.78582
29.12938	-6.50363	4.78582
29.13361	-6.50363	4.78582
29.13767	-6.50363	4.78582
29.14173	-6.50363	4.78582
29.14578	-6.50363	4.78582
29.14984	-6.50363	4.78582
29.15389	-6.50363	4.78582
29.15795	-6.50363	4.78582
29.16201	-6.48166	4.78582
29.16606	-6.48166	4.78582
29.17012	-6.48166	4.78582
29.17418	-6.50363	4.78582
29.17823	-6.50363	4.78582
29.18229	-6.50363	4.78582
29.18634	-6.50363	4.78582
29.19040	-6.50363	4.78582
29.19445	-6.50363	4.78582
29.19851	-6.48166	4.78582
29.20256	-6.50363	4.78582
29.20662	-6.50363	4.78582
29.21068	-6.50363	4.78582
29.21473	-6.48166	4.78582
29.21878	-6.50363	4.78582
29.22284	-6.50363	4.78582
29.22690	-6.48166	4.78582
29.23095	-6.48166	4.78582
29.23519	-6.48166	4.78582
29.23925	-6.48166	4.78582
29.24333	-6.48166	4.78582
29.24739	-6.48166	4.78582
29.25145	-6.48166	4.78582
29.25556	-6.48166	4.78582
29.25962	-6.48166	4.78582
29.26369	-6.48166	4.78582
29.26775	-6.48166	4.78582
29.27235	-6.48166	4.78582
29.27641	-6.48166	4.78582
29.28047	-6.48166	4.78582
29.28452	-6.48166	4.78582
29.28859	-6.48166	4.78582
29.29265	-6.48166	4.78582
29.29671	-6.48166	4.78582
29.30077	-6.48166	4.78582
29.30484	-6.48166	4.78582
29.30890	-6.45968	4.78582
29.31296	-6.45968	4.78582
29.31702	-6.45968	4.78582
29.32115	-6.45968	4.78582
29.32521	-6.45968	4.78582
29.32927	-6.45968	4.78582
29.33333	-6.45968	4.78582
29.33763	-6.45968	4.78582
29.34170	-6.45968	4.78582
29.34577	-6.45968	4.78582
29.34984	-6.45968	4.78582
29.35390	-6.45968	4.78582
29.35800	-6.45968	4.78582
29.36206	-6.45968	4.78582
29.36612	-6.45968	4.78582
29.37018	-6.45968	4.78582
29.37425	-6.43771	4.78582
29.37831	-6.45968	4.78582
29.38237	-6.43771	4.78582
29.38643	-6.43771	4.78582
29.39050	-6.43771	4.78582
29.39461	-6.43771	4.78582
29.39867	-6.43771	4.78582
29.40273	-6.43771	4.78582
29.40682	-6.43771	4.78582
29.41090	-6.43771	4.78582
29.41496	-6.43771	4.78582
29.41902	-6.43771	4.78582
29.42317	-6.43771	4.78582
29.42724	-6.43771	4.78582
29.43130	-6.41574	4.78582
29.43536	-6.41574	4.78582
29.44026	-6.41574	4.78582
29.44432	-6.41574	4.78582
29.44838	-6.41574	4.78582
29.45246	-6.41574	4.78582
29.45653	-6.41574	4.78582
29.46060	-6.41574	4.78582
29.46466	-6.41574	4.78582
29.46872	-6.39377	4.78582
29.47281	-6.39377	4.78582
29.47688	-6.39377	4.78582
29.48094	-6.41574	4.78582
29.48499	-6.39377	4.78582
29.48907	-6.39377	4.78582
29.49315	-6.39377	4.78582
29.49722	-6.39377	4.78582
29.50129	-6.39377	4.78582
29.50535	-6.39377	4.78582
29.50943	-6.39377	4.78582
29.51348	-6.39377	4.78582
29.51754	-6.39377	4.78582
29.52267	-6.39377	4.78582
29.52673	-6.39377	4.78582
29.53079	-6.39377	4.78582
29.53485	-6.39377	4.78582
29.54015	-6.39377	4.78582
29.54526	-6.37179	4.78582
29.54933	-6.37179	4.78582
29.55339	-6.37179	4.78582
29.55747	-6.37179	4.78582
29.56153	-6.37179	4.78582
29.56559	-6.37179	4.78582
29.56965	-6.37179	4.78582
29.57372	-6.37179	4.78582
29.57778	-6.37179	4.78582
29.58184	-6.37179	4.78582
29.58590	-6.34982	4.78582
29.59102	-6.34982	4.78582
29.59515	-6.34982	4.78582
29.59922	-6.34982	4.78582
29.60329	-6.34982	4.78582
29.60738	-6.34982	4.78582
29.61145	-6.34982	4.78582
29.61551	-6.34982	4.78582
29.61957	-6.32785	4.78582
29.62434	-6.32785	4.78582
29.62841	-6.32785	4.78582
29.63247	-6.32785	4.78582
29.63656	-6.32785	4.78582
29.64065	-6.32785	4.78582
29.64474	-6.32785	4.78582
29.64901	-6.32785	4.78582
29.65307	-6.30588	4.78582
29.65713	-6.30588	4.78582
29.66119	-6.30588	4.78582
29.66525	-6.30588	4.78582
29.66938	-6.30588	4.78582
29.67354	-6.30588	4.78582
29.67764	-6.30588	4.78582
29.68170	-6.30588	4.78582
29.68610	-6.28390	4.78582
29.69020	-6.28390	4.78582
29.69430	-6.28390	4.78582
29.69836	-6.28390	4.78582
29.70242	-6.28390	4.78582
29.70651	-6.28390	4.78582
29.71057	-6.28390	4.78582
29.71463	-6.26193	4.78582
29.71868	-6.26193	4.78582
29.72275	-6.26193	4.78582
29.72680	-6.26193	4.78582
29.73086	-6.26193	4.78582
29.73491	-6.26193	4.78582
29.73897	-6.23996	4.78582
29.74303	-6.23996	4.78582
29.74708	-6.23996	4.78582
29.75132	-6.23996	4.78582
29.75538	-6.23996	4.78582
29.75943	-6.23996	4.78582
29.76349	-6.23996	4.78582
29.76754	-6.23996	4.78582
29.77160	-6.21798	4.78582
29.77566	-6.21798	4.78582
29.77972	-6.21798	4.78582
29.78377	-6.21798	4.78582
29.78784	-6.21798	4.78582
29.79189	-6.21798	4.78582
29.79595	-6.19601	4.78582
29.80000	-6.19601	4.78582
29.80406	-6.19601	4.78582
29.80811	-6.19601	4.78582
29.81217	-6.19601	4.78582
29.81622	-6.17404	4.78582
29.82028	-6.17404	4.78582
29.82433	-6.17404	4.78582
29.82838	-6.17404	4.78582
29.83244	-6.15207	4.78582
29.83650	-6.15207	4.78582
29.84056	-6.15207	4.78582
29.84461	-6.15207	4.78582
29.84867	-6.15207	4.78582
29.85291	-6.15207	4.78582
29.85697	-6.13009	4.78582
29.86102	-6.13009	4.78582
29.86508	-6.13009	4.78582
29.86914	-6.13009	4.78582
29.87320	-6.13009	4.78582
29.87725	-6.10812	4.78582
29.88133	-6.10812	4.78582
29.88539	-6.10812	4.78582
29.88945	-6.08615	4.78582
29.89351	-6.08615	4.78582
29.89756	-6.08615	4.78582
29.90162	-6.08615	4.78582
29.90568	-6.08615	4.78582
29.90974	-6.08615	4.78582
29.91379	-6.08615	4.78582
29.91785	-6.08615	4.78582
29.92190	-6.06418	4.78582
29.92596	-6.06418	4.78582
29.93001	-6.04220	4.78582
29.93407	-6.04220	4.78582
29.93812	-6.04220	4.78582
29.94217	-6.04220	4.78582
29.94623	-6.04220	4.78582
29.95028	-6.02023	4.78582
29.95451	-6.02023	4.78582
29.95857	-6.02023	4.78582
29.96262	-6.02023	4.78582
29.96669	-5.99826	4.78582
29.97074	-5.99826	4.78582
29.97480	-5.99826	4.78582
29.97885	-5.99826	4.78582
29.98293	-5.99826	4.78582
29.98699	-5.97629	4.78582
29.99105	-5.97629	4.78582
29.99510	-5.97629	4.78582
29.99915	-5.97629	4.78582
