Time (s)   Thrust (N)   RPM
0.00032	0.00000	5153.75600
0.00425	0.00000	5153.75600
0.00811	0.00000	5176.63000
0.01195	0.00000	5176.63000
0.01580	0.00000	5176.63000
0.01967	0.00000	5176.63000
0.02353	0.00000	5176.63000
0.02736	0.00000	5176.63000
0.03121	0.00000	5183.97200
0.03504	0.00000	5183.97200
0.03888	0.00000	5183.97200
0.04272	0.00000	5183.97200
0.04656	0.00000	5183.97200
0.05039	0.00000	5183.97200
0.05424	0.00000	5183.97200
0.05807	0.00000	5092.56100
0.06191	0.00000	5092.56100
0.06573	0.00000	5092.56100
0.06956	0.00000	5092.56100
0.07338	0.00000	5092.56100
0.07723	0.00000	5092.56100
0.08107	0.00000	5001.71700
0.08490	0.00000	5001.71700
0.08873	0.00000	5001.71700
0.09256	0.00000	5001.71700
0.09639	0.00000	5001.71700
0.10022	0.00000	5001.71700
0.10405	0.00000	5003.51100
0.10788	0.00000	5003.51100
0.11171	0.00000	5003.51100
0.11554	0.00000	5003.51100
0.11937	0.00000	5003.51100
0.12320	0.00000	5003.51100
0.12704	0.00000	4913.97400
0.13087	0.00000	4913.97400
0.13470	0.00000	4913.97400
0.13852	0.00000	4913.97400
0.14234	0.00000	4913.97400
0.14618	0.00000	4913.97400
0.15000	0.00000	4897.90500
0.15383	0.00000	4897.90500
0.15767	0.00000	4897.90500
0.16150	0.00000	4897.90500
0.16533	0.00000	4897.90500
0.16916	0.00000	4897.90500
0.17300	0.00000	4855.29100
0.17682	0.00000	4855.29100
0.18065	0.00000	4855.29100
0.18449	0.00000	4855.29100
0.18833	0.00000	4855.29100
0.19217	0.00000	4855.29100
0.19600	0.00000	4857.21900
0.19984	0.00000	4857.21900
0.20367	0.00000	4857.21900
0.20750	0.00000	4857.21900
0.21134	0.00000	4857.21900
0.21517	0.00000	4857.21900
0.21901	0.00000	4811.42200
0.22284	0.00000	4811.42200
0.22667	0.00000	4811.42200
0.23051	0.00000	4811.42200
0.23435	0.00000	4811.42200
0.23819	0.00000	4811.42200
0.24203	0.00000	4834.66500
0.24587	0.00000	4834.66500
0.24972	0.00000	4834.66500
0.25355	0.00000	4834.66500
0.25740	0.00000	4834.66500
0.26123	0.00000	4834.66500
0.26506	0.00000	4804.68700
0.26890	0.00000	4804.68700
0.27274	0.00000	4804.68700
0.27657	0.00000	4804.68700
0.28041	0.00000	4804.68700
0.28425	0.00000	4825.36700
0.28810	0.00000	4825.36700
0.29194	0.00000	4825.36700
0.29578	0.00000	4825.36700
0.29961	0.00000	4825.36700
0.30344	0.00000	4825.36700
0.30729	0.00000	4750.18100
0.31111	0.00000	4750.18100
0.31495	0.00000	4750.18100
0.31877	0.00000	4750.18100
0.32261	0.00000	4750.18100
0.32644	0.00000	4750.18100
0.33028	0.00000	4761.08300
0.33412	0.00000	4761.08300
0.33795	0.00000	4761.08300
0.34178	0.00000	4761.08300
0.34563	0.00000	4761.08300
0.34951	0.00000	4761.08300
0.35336	0.00000	4806.06600
0.35722	0.00000	4806.06600
0.36105	0.00000	4806.06600
0.36488	0.00000	4806.06600
0.36873	0.00000	4806.06600
0.37257	0.00000	4806.06600
0.37640	0.00000	4728.37900
0.38024	0.00000	4728.37900
0.38407	0.00000	4728.37900
0.38792	0.00000	4728.37900
0.39175	0.00000	4728.37900
0.39559	0.00000	4748.16100
0.39942	0.00000	4748.16100
0.40326	0.00000	4748.16100
0.40710	0.00000	4748.16100
0.41096	0.00000	4748.16100
0.41481	0.00000	4748.16100
0.41865	0.00000	4745.40400
0.42249	0.00000	4745.40400
0.42633	0.00000	4745.40400
0.43017	0.00000	4745.40400
0.43400	0.00000	4745.40400
0.43784	0.00000	4745.40400
0.44167	0.00000	4761.94800
0.44551	0.00000	4761.94800
0.44934	0.00000	4761.94800
0.45317	0.00000	4761.94800
0.45702	0.00000	4761.94800
0.46086	0.00000	4761.94800
0.46469	0.00000	4703.85100
0.46851	0.00000	4703.85100
0.47236	0.00000	4703.85100
0.47619	0.00000	4703.85100
0.48002	0.00000	4703.85100
0.48386	0.00000	4703.85100
0.48769	0.00000	4748.16100
0.49152	0.00000	4748.16100
0.49536	0.00000	4748.16100
0.49920	0.00000	4748.16100
0.50303	0.00000	4748.16100
0.50687	0.00000	4723.34500
0.51072	0.00000	4723.34500
0.51454	0.00000	4723.34500
0.51837	0.00000	4723.34500
0.52219	0.00000	4723.34500
0.52602	0.00000	4723.34500
0.52985	0.00000	4731.61700
0.53369	0.00000	4731.61700
0.53752	0.00000	4731.61700
0.54135	0.00000	4731.61700
0.54519	0.00000	4731.61700
0.54903	0.00000	4731.61700
0.55287	0.00000	4734.37500
0.55670	0.00000	4734.37500
0.56053	0.00000	4734.37500
0.56438	0.00000	4734.37500
0.56822	0.00000	4734.37500
0.57205	0.00000	4734.37500
0.57589	0.00000	4745.40400
0.57973	0.00000	4745.40400
0.58356	0.00000	4745.40400
0.58739	0.00000	4745.40400
0.59124	0.00000	4745.40400
0.59508	0.00000	4745.40400
0.59890	0.00000	4768.41500
0.60273	0.00000	4768.41500
0.60656	0.00000	4768.41500
0.61039	0.00000	4768.41500
0.61422	0.00000	4768.41500
0.61806	0.00000	4762.83500
0.62189	0.00000	4762.83500
0.62572	0.00000	4762.83500
0.62956	0.00000	4762.83500
0.63340	0.00000	4762.83500
0.63724	0.00000	4762.83500
0.64107	0.00000	4737.13200
0.64490	0.00000	4737.13200
0.64874	0.00000	4737.13200
0.65258	0.00000	4737.13200
0.65641	0.00000	4737.13200
0.66026	0.00000	4737.13200
0.66409	0.00000	4734.37500
0.66793	0.00000	4734.37500
0.67177	0.00000	4734.37500
0.67560	0.00000	4734.37500
0.67943	0.00000	4734.37500
0.68326	0.00000	4734.37500
0.68710	0.00000	4737.13200
0.69093	0.00000	4737.13200
0.69477	0.00000	4737.13200
0.69860	0.00000	4737.13200
0.70245	0.00000	4737.13200
0.70627	0.00000	4706.80200
0.71011	0.00000	4706.80200
0.71395	0.00000	4706.80200
0.71778	0.00000	4706.80200
0.72162	0.00000	4706.80200
0.72546	0.00000	4706.80200
0.72929	0.00000	4737.13200
0.73313	0.00000	4737.13200
0.73695	0.00000	4737.13200
0.74078	0.00000	4737.13200
0.74460	0.00000	4737.13200
0.74842	0.00000	4737.13200
0.75225	0.00000	4728.86000
0.75609	0.00000	4728.86000
0.75992	0.00000	4728.86000
0.76376	0.00000	4728.86000
0.76759	0.00000	4728.86000
0.77142	0.00000	4728.86000
0.77528	0.00000	4731.61700
0.77912	0.00000	4731.61700
0.78295	0.00000	4731.61700
0.78678	0.00000	4731.61700
0.79062	0.00000	4731.61700
0.79446	0.00000	4731.61700
0.79828	0.00000	4717.83100
0.80210	0.00000	4717.83100
0.80594	0.00000	4717.83100
0.80977	0.00000	4717.83100
0.81360	0.00000	4717.83100
0.81744	0.00000	4760.04500
0.82126	0.00000	4760.04500
0.82509	0.00000	4760.04500
0.82894	0.00000	4760.04500
0.83277	0.00000	4760.04500
0.83663	0.00000	4760.04500
0.84046	0.00000	4745.40400
0.84430	0.00000	4745.40400
0.84813	0.00000	4745.40400
0.85196	0.00000	4745.40400
0.85579	0.00000	4745.40400
0.85963	0.00000	4745.40400
0.86347	0.00000	4748.16100
0.86730	0.00000	4748.16100
0.87114	0.00000	4748.16100
0.87497	0.00000	4748.16100
0.87881	0.00000	4748.16100
0.88264	0.00000	4748.16100
0.88647	0.00000	4720.58800
0.89032	0.00000	4720.58800
0.89415	0.00000	4720.58800
0.89797	0.00000	4720.58800
0.90181	0.00000	4720.58800
0.90565	0.00000	4751.67400
0.90950	0.00000	4751.67400
0.91333	0.00000	4751.67400
0.91716	0.00000	4751.67400
0.92100	0.00000	4751.67400
0.92483	0.00000	4751.67400
0.92866	0.00000	4720.58800
0.93249	0.00000	4720.58800
0.93632	0.00000	4720.58800
0.94015	0.00000	4720.58800
0.94399	0.00000	4720.58800
0.94782	0.00000	4720.58800
0.95165	0.00000	4773.99500
0.95548	0.00000	4773.99500
0.95931	0.00000	4773.99500
0.96314	0.00000	4773.99500
0.96698	0.00000	4773.99500
0.97081	0.00000	4773.99500
0.97464	0.00000	4712.31600
0.97848	0.00000	4712.31600
0.98230	0.00000	4712.31600
0.98614	0.00000	4712.31600
0.98998	0.00000	4712.31600
0.99381	0.00000	4743.30300
0.99766	0.00000	4743.30300
1.00151	0.00000	4743.30300
1.00534	0.00000	4743.30300
1.00917	0.00000	4743.30300
1.01300	0.00000	4743.30300
1.01684	0.00000	4762.83500
1.02067	0.00000	4762.83500
1.02450	0.00000	4762.83500
1.02833	0.00000	4762.83500
1.03217	0.00000	4762.83500
1.03600	0.00000	4762.83500
1.03983	0.00000	4717.83100
1.04368	0.00000	4717.83100
1.04751	0.00000	4717.83100
1.05133	0.00000	4717.83100
1.05517	0.00000	4717.83100
1.05900	0.00000	4717.83100
1.06285	0.00000	4734.37500
1.06668	0.00000	4734.37500
1.07052	0.00000	4734.37500
1.07435	0.00000	4734.37500
1.07819	0.00000	4734.37500
1.08201	0.00000	4734.37500
1.08584	0.00000	4715.07300
1.08967	0.00000	4715.07300
1.09350	0.00000	4715.07300
1.09734	0.00000	4715.07300
1.10117	0.00000	4715.07300
1.10501	0.00000	4773.99500
1.10884	0.00000	4773.99500
1.11267	0.00000	4773.99500
1.11650	0.00000	4773.99500
1.12034	0.00000	4773.99500
1.12416	0.00000	4773.99500
1.12799	0.00000	4723.34500
1.13184	0.00000	4723.34500
1.13566	0.00000	4723.34500
1.13950	0.00000	4723.34500
1.14333	0.00000	4723.34500
1.14716	0.00000	4723.34500
1.15099	0.00000	4731.61700
1.15482	0.00000	4731.61700
1.15865	0.00000	4731.61700
1.16248	0.00000	4731.61700
1.16631	0.00000	4731.61700
1.17014	0.00000	4731.61700
1.17397	0.00000	4715.07300
1.17780	0.00000	4715.07300
1.18164	0.00000	4715.07300
1.18546	0.00000	4715.07300
1.18931	0.00000	4715.07300
1.19315	0.00000	4695.77200
1.19698	0.00000	4695.77200
1.20077	0.00000	4695.77200
1.20461	0.00000	4695.77200
1.20844	0.00000	4695.77200
1.21227	0.00000	4695.77200
1.21610	0.00000	4762.83500
1.21994	0.00000	4762.83500
1.22377	0.00000	4762.83500
1.22760	0.00000	4762.83500
1.23142	0.00000	4762.83500
1.23526	0.00000	4762.83500
1.23909	0.00000	4739.88900
1.24293	0.00000	4739.88900
1.24676	0.00000	4739.88900
1.25058	0.00000	4739.88900
1.25442	0.00000	4739.88900
1.25826	0.00000	4739.88900
1.26209	0.00000	4742.64700
1.26593	0.00000	4742.64700
1.26977	0.00000	4742.64700
1.27360	0.00000	4742.64700
1.27742	0.00000	4742.64700
1.28126	0.00000	4742.64700
1.28509	0.00000	4723.34500
1.28892	0.00000	4723.34500
1.29276	0.00000	4723.34500
1.29661	0.00000	4723.34500
1.30044	0.00000	4723.34500
1.30428	0.00000	4765.62500
1.30812	0.00000	4765.62500
1.31196	0.00000	4765.62500
1.31579	0.00000	4765.62500
1.31963	0.00000	4765.62500
1.32347	0.00000	4765.62500
1.32730	0.00000	4745.40400
1.33115	0.00000	4745.40400
1.33499	0.00000	4745.40400
1.33883	0.00000	4745.40400
1.34266	0.00000	4745.40400
1.34651	0.00000	4745.40400
1.35037	0.00000	4742.64700
1.35422	0.00000	4742.64700
1.35805	0.00000	4742.64700
1.36188	0.00000	4742.64700
1.36572	0.00000	4742.64700
1.36956	0.00000	4742.64700
1.37341	0.00000	4745.40400
1.37724	0.00000	4745.40400
1.38108	0.00000	4745.40400
1.38492	0.00000	4745.40400
1.38876	0.00000	4745.40400
1.39260	0.00000	4715.07300
1.39644	0.00000	4715.07300
1.40027	0.00000	4715.07300
1.40411	0.00000	4715.07300
1.40794	0.00000	4715.07300
1.41178	0.00000	4715.07300
1.41561	0.00000	4720.58800
1.41944	0.00000	4720.58800
1.42327	0.00000	4720.58800
1.42710	0.00000	4720.58800
1.43094	0.00000	4720.58800
1.43477	0.00000	4720.58800
1.43860	0.00000	4728.86000
1.44244	0.00000	4728.86000
1.44627	0.00000	4728.86000
1.45010	0.00000	4728.86000
1.45392	0.00000	4728.86000
1.45776	0.00000	4728.86000
1.46159	0.00000	4737.13200
1.46543	0.00000	4737.13200
1.46927	0.00000	4737.13200
1.47310	0.00000	4737.13200
1.47695	0.00000	4737.13200
1.48078	0.00000	4737.13200
1.48460	0.00000	4723.34500
1.48844	0.00000	4723.34500
1.49227	0.00000	4723.34500
1.49613	0.00000	4723.34500
1.49998	0.00000	4723.34500
1.50381	0.00000	4709.55900
1.50763	0.00000	4709.55900
1.51147	0.00000	4709.55900
1.51530	0.00000	4709.55900
1.51912	0.00000	4709.55900
1.52297	0.00000	4709.55900
1.52681	0.00000	4731.61700
1.53063	0.00000	4731.61700
1.53445	0.00000	4731.61700
1.53829	0.00000	4731.61700
1.54212	0.00000	4731.61700
1.54597	0.00000	4731.61700
1.54979	0.00000	4728.86000
1.55362	0.00000	4728.86000
1.55746	0.00000	4728.86000
1.56129	0.00000	4728.86000
1.56514	0.00000	4728.86000
1.56897	0.00000	4728.86000
1.57277	0.00000	4731.61700
1.57660	0.00000	4731.61700
1.58042	0.00000	4731.61700
1.58426	0.00000	4731.61700
1.58810	0.00000	4731.61700
1.59192	0.00000	4701.28600
1.59577	0.00000	4701.28600
1.59961	0.00000	4701.28600
1.60344	0.00000	4701.28600
1.60728	0.00000	4701.28600
1.61113	0.00000	4701.28600
1.61496	0.00000	4720.58800
1.61879	0.00000	4720.58800
1.62262	0.00000	4720.58800
1.62646	0.00000	4720.58800
1.63028	0.00000	4720.58800
1.63412	0.00000	4720.58800
1.63795	0.00000	4728.86000
1.64178	0.00000	4728.86000
1.64561	0.00000	4728.86000
1.64944	0.00000	4728.86000
1.65328	0.00000	4728.86000
1.65710	0.00000	4728.86000
1.66093	0.00000	4726.10300
1.66477	0.00000	4726.10300
1.66861	0.00000	4726.10300
1.67244	0.00000	4726.10300
1.67629	0.00000	4726.10300
1.68012	0.00000	4726.10300
1.68394	0.00000	4720.58800
1.68777	0.00000	4720.58800
1.69160	0.00000	4720.58800
1.69544	0.00000	4720.58800
1.69929	0.00000	4720.58800
1.70312	0.00000	4701.28600
1.70696	0.00000	4701.28600
1.71080	0.00000	4701.28600
1.71463	0.00000	4701.28600
1.71846	0.00000	4701.28600
1.72229	0.00000	4701.28600
1.72613	0.00000	4748.16100
1.72996	0.00000	4748.16100
1.73381	0.00000	4748.16100
1.73764	0.00000	4748.16100
1.74146	0.00000	4748.16100
1.74529	0.00000	4748.16100
1.74912	0.00000	4745.40400
1.75296	0.00000	4745.40400
1.75677	0.00000	4745.40400
1.76061	0.00000	4745.40400
1.76444	0.00000	4745.40400
1.76827	0.00000	4745.40400
1.77210	0.00000	4739.88900
1.77593	0.00000	4739.88900
1.77976	0.00000	4739.88900
1.78359	0.00000	4739.88900
1.78743	0.00000	4739.88900
1.79127	0.00000	4765.62500
1.79509	0.00000	4765.62500
1.79893	0.00000	4765.62500
1.80277	0.00000	4765.62500
1.80662	0.00000	4765.62500
1.81046	0.00000	4765.62500
1.81429	0.00000	4723.34500
1.81812	0.00000	4723.34500
1.82195	0.00000	4723.34500
1.82581	0.00000	4723.34500
1.82966	0.00000	4723.34500
1.83349	0.00000	4723.34500
1.83733	0.00000	4785.15600
1.84117	0.00000	4785.15600
1.84501	0.00000	4785.15600
1.84883	0.00000	4785.15600
1.85266	0.00000	4785.15600
1.85650	0.00000	4785.15600
1.86034	0.00000	4739.88900
1.86417	0.00000	4739.88900
1.86800	0.00000	4739.88900
1.87184	0.00000	4739.88900
1.87567	0.00000	4739.88900
1.87951	0.00000	4739.88900
1.88334	0.00000	4723.34500
1.88717	0.00000	4723.34500
1.89100	0.00000	4723.34500
1.89482	0.00000	4723.34500
1.89866	0.00000	4723.34500
1.90250	0.00000	4701.28600
1.90634	0.00000	4701.28600
1.91017	0.00000	4701.28600
1.91401	0.00000	4701.28600
1.91785	0.00000	4701.28600
1.92169	0.00000	4701.28600
1.92552	0.00000	4742.64700
1.92935	0.00000	4742.64700
1.93319	0.00000	4742.64700
1.93702	0.00000	4742.64700
1.94086	0.00000	4742.64700
1.94469	0.00000	4742.64700
1.94852	0.00000	4734.37500
1.95235	0.00000	4734.37500
1.95618	0.00000	4734.37500
1.96001	0.00000	4734.37500
1.96385	0.00000	4734.37500
1.96769	0.00000	4734.37500
1.97152	0.00000	4726.10300
1.97535	0.00000	4726.10300
1.97918	0.00000	4726.10300
1.98301	0.00000	4726.10300
1.98683	0.00000	4726.10300
1.99067	0.00000	4771.20500
1.99449	0.00000	4771.20500
1.99833	0.00000	4771.20500
2.00217	0.00000	4771.20500
2.00601	0.00000	4771.20500
2.00985	0.00000	4771.20500
2.01370	0.00000	4720.58800
2.01754	0.00000	4720.58800
2.02138	0.00000	4720.58800
2.02521	0.00000	4720.58800
2.02905	0.00000	4720.58800
2.03288	0.00000	4720.58800
2.03672	0.00000	4739.88900
2.04056	0.00000	4739.88900
2.04440	0.00000	4739.88900
2.04824	0.00000	4739.88900
2.05207	0.00000	4739.88900
2.05591	0.00000	4739.88900
2.05973	0.00000	4742.64700
2.06356	0.00000	4742.64700
2.06738	0.00000	4742.64700
2.07122	0.00000	4742.64700
2.07505	0.00000	4742.64700
2.07888	0.00000	4742.64700
2.08270	0.00000	4728.86000
2.08654	0.00000	4728.86000
2.09038	0.00000	4728.86000
2.09421	0.00000	4728.86000
2.09804	0.00000	4728.86000
2.10187	0.00000	4704.04400
2.10571	0.00000	4704.04400
2.10955	0.00000	4704.04400
2.11337	0.00000	4704.04400
2.11722	0.00000	4704.04400
2.12105	0.00000	4704.04400
2.12488	0.00000	4687.50000
2.12871	0.00000	4687.50000
2.13253	0.00000	4687.50000
2.13638	0.00000	4687.50000
2.14021	0.00000	4687.50000
2.14404	0.00000	4687.50000
2.14787	0.00000	4737.13200
2.15170	0.00000	4737.13200
2.15553	0.00000	4737.13200
2.15937	0.00000	4737.13200
2.16322	0.00000	4737.13200
2.16706	0.00000	4737.13200
2.17089	0.00000	4748.16100
2.17472	0.00000	4748.16100
2.17855	0.00000	4748.16100
2.18239	0.00000	4748.16100
2.18622	0.00000	4748.16100
2.19006	0.00000	4762.83500
2.19390	0.00000	4762.83500
2.19773	0.00000	4762.83500
2.20156	0.00000	4762.83500
2.20539	0.00000	4762.83500
2.20922	0.00000	4762.83500
2.21306	0.00000	4712.31600
2.21690	0.00000	4712.31600
2.22074	0.00000	4712.31600
2.22458	0.00000	4712.31600
2.22841	0.00000	4712.31600
2.23224	0.00000	4712.31600
2.23607	0.00000	4734.37500
2.23990	0.00000	4734.37500
2.24373	0.00000	4734.37500
2.24757	0.00000	4734.37500
2.25140	0.00000	4734.37500
2.25523	0.00000	4734.37500
2.25907	0.00000	4737.13200
2.26290	0.00000	4737.13200
2.26673	0.00000	4737.13200
2.27056	0.00000	4737.13200
2.27439	0.00000	4737.13200
2.27823	0.00000	4737.13200
2.28206	0.00000	4776.78500
2.28589	0.00000	4776.78500
2.28973	0.00000	4776.78500
2.29356	0.00000	4776.78500
2.29739	0.00000	4776.78500
2.30122	0.00000	4706.80200
2.30507	0.00000	4706.80200
2.30890	0.00000	4706.80200
2.31274	0.00000	4706.80200
2.31657	0.00000	4706.80200
2.32040	0.00000	4706.80200
2.32424	0.00000	4734.37500
2.32809	0.00000	4734.37500
2.33192	0.00000	4734.37500
2.33575	0.00000	4734.37500
2.33959	0.00000	4734.37500
2.34343	0.00000	4734.37500
2.34730	0.00000	4748.16100
2.35115	0.00000	4748.16100
2.35499	0.00000	4748.16100
2.35882	0.00000	4748.16100
2.36265	0.00000	4748.16100
2.36649	0.00000	4748.16100
2.37032	0.00000	4734.37500
2.37416	0.00000	4734.37500
2.37800	0.00000	4734.37500
2.38184	0.00000	4734.37500
2.38567	0.00000	4734.37500
2.38952	0.00000	4706.80200
2.39336	0.00000	4706.80200
2.39719	0.00000	4706.80200
2.40102	0.00000	4706.80200
2.40487	0.00000	4706.80200
2.40870	0.00000	4706.80200
2.41253	0.00000	4734.37500
2.41637	0.00000	4734.37500
2.42021	0.00000	4734.37500
2.42405	0.00000	4734.37500
2.42788	0.00000	4734.37500
2.43172	0.00000	4734.37500
2.43555	0.00000	4742.64700
2.43940	0.00000	4742.64700
2.44322	0.00000	4742.64700
2.44706	0.00000	4742.64700
2.45089	0.00000	4742.64700
2.45471	0.00000	4742.64700
2.45854	0.00000	4737.13200
2.46239	0.00000	4737.13200
2.46622	0.00000	4737.13200
2.47006	0.00000	4737.13200
2.47389	0.00000	4737.13200
2.47772	0.00000	4737.13200
2.48156	0.00000	4750.91900
2.48539	0.00000	4750.91900
2.48922	0.00000	4750.91900
2.49305	0.00000	4750.91900
2.49688	0.00000	4750.91900
2.50071	0.00000	4768.41500
2.50455	0.00000	4768.41500
2.50839	0.00000	4768.41500
2.51222	0.00000	4768.41500
2.51606	0.00000	4768.41500
2.51988	0.00000	4768.41500
2.52371	0.00000	4739.88900
2.52756	0.00000	4739.88900
2.53141	0.00000	4739.88900
2.53524	0.00000	4739.88900
2.53907	0.00000	4739.88900
2.54291	0.00000	4739.88900
2.54675	0.00000	4734.37500
2.55058	0.00000	4734.37500
2.55441	0.00000	4734.37500
2.55824	0.00000	4734.37500
2.56206	0.00000	4734.37500
2.56590	0.00000	4734.37500
2.56975	0.00000	4742.64700
2.57358	0.00000	4742.64700
2.57740	0.00000	4742.64700
2.58125	0.00000	4742.64700
2.58508	0.00000	4742.64700
2.58891	0.00000	4771.20500
2.59274	0.00000	4771.20500
2.59657	0.00000	4771.20500
2.60042	0.00000	4771.20500
2.60425	0.00000	4771.20500
2.60809	0.00000	4771.20500
2.61192	0.00000	4717.83100
2.61576	0.00000	4717.83100
2.61960	0.00000	4717.83100
2.62343	0.00000	4717.83100
2.62725	0.00000	4717.83100
2.63108	0.00000	4717.83100
2.63492	0.00000	4745.40400
2.63875	0.00000	4745.40400
2.64258	0.00000	4745.40400
2.64642	0.00000	4745.40400
2.65025	0.00000	4745.40400
2.65408	0.00000	4745.40400
2.65791	0.00000	4742.64700
2.66174	0.00000	4742.64700
2.66557	0.00000	4742.64700
2.66939	0.00000	4742.64700
2.67322	0.00000	4742.64700
2.67707	0.00000	4742.64700
2.68090	0.00000	4734.37500
2.68473	0.00000	4734.37500
2.68857	0.00000	4734.37500
2.69241	0.00000	4734.37500
2.69624	0.00000	4734.37500
2.70007	0.00000	4776.78500
2.70391	0.00000	4776.78500
2.70773	0.00000	4776.78500
2.71157	0.00000	4776.78500
2.71541	0.00000	4776.78500
2.71924	0.00000	4776.78500
2.72308	0.00000	4728.86000
2.72692	0.00000	4728.86000
2.73074	0.00000	4728.86000
2.73457	0.00000	4728.86000
2.73840	0.00000	4728.86000
2.74223	0.00000	4728.86000
2.74606	0.00000	4734.37500
2.74989	0.00000	4734.37500
2.75372	0.00000	4734.37500
2.75756	0.00000	4734.37500
2.76138	0.00000	4734.37500
2.76522	0.00000	4734.37500
2.76905	0.00000	4739.88900
2.77288	0.00000	4739.88900
2.77671	0.00000	4739.88900
2.78054	0.00000	4739.88900
2.78439	0.00000	4739.88900
2.78822	0.00000	4739.88900
2.79205	0.00000	4731.61700
2.79588	0.00000	4731.61700
2.79971	0.00000	4731.61700
2.80354	0.00000	4731.61700
2.80737	0.00000	4731.61700
2.81120	0.00000	4757.25400
2.81506	0.00000	4757.25400
2.81889	0.00000	4757.25400
2.82273	0.00000	4757.25400
2.82656	0.00000	4757.25400
2.83040	0.00000	4757.25400
2.83422	0.00000	4731.61700
2.83807	0.00000	4731.61700
2.84190	0.00000	4731.61700
2.84573	0.00000	4731.61700
2.84956	0.00000	4731.61700
2.85340	0.00000	4731.61700
2.85723	0.00000	4742.64700
2.86106	0.00000	4742.64700
2.86488	0.00000	4742.64700
2.86872	0.00000	4742.64700
2.87256	0.00000	4742.64700
2.87639	0.00000	4742.64700
2.88022	0.00000	4728.86000
2.88405	0.00000	4728.86000
2.88788	0.00000	4728.86000
2.89171	0.00000	4728.86000
2.89555	0.00000	4728.86000
2.89938	0.00000	4754.46400
2.90323	0.00000	4754.46400
2.90706	0.00000	4754.46400
2.91089	0.00000	4754.46400
2.91473	0.00000	4754.46400
2.91856	0.00000	4754.46400
2.92240	0.00000	4726.10300
2.92623	0.00000	4726.10300
2.93007	0.00000	4726.10300
2.93390	0.00000	4726.10300
2.93773	0.00000	4726.10300
2.94157	0.00000	4726.10300
2.94539	0.00000	4731.61700
2.94922	0.00000	4731.61700
2.95306	0.00000	4731.61700
2.95689	0.00000	4731.61700
2.96071	0.00000	4731.61700
2.96455	0.00000	4731.61700
2.96838	0.00000	4737.13200
2.97221	0.00000	4737.13200
2.97604	0.00000	4737.13200
2.97988	0.00000	4737.13200
2.98371	0.00000	4737.13200
2.98755	0.00000	4737.13200
2.99137	0.00000	4734.37500
2.99520	0.00000	4734.37500
2.99903	0.00000	4734.37500
3.00287	0.00000	4734.37500
3.00671	0.00000	4734.37500
3.01054	0.00000	4706.80200
3.01437	0.00000	4706.80200
3.01820	0.00000	4706.80200
3.02204	0.00000	4706.80200
3.02587	0.00000	4706.80200
3.02971	0.00000	4706.80200
3.03354	0.00000	4782.36600
3.03736	0.00000	4782.36600
3.04120	0.00000	4782.36600
3.04503	0.00000	4782.36600
3.04885	0.00000	4782.36600
3.05270	0.00000	4782.36600
3.05654	0.00000	4737.13200
3.06038	0.00000	4737.13200
3.06421	0.00000	4737.13200
3.06804	0.00000	4737.13200
3.07188	0.00000	4737.13200
3.07571	0.00000	4737.13200
3.07955	0.00000	4734.37500
3.08338	0.00000	4734.37500
3.08722	0.00000	4734.37500
3.09105	0.00000	4734.37500
3.09488	0.00000	4734.37500
3.09871	0.00000	4757.25400
3.10254	0.00000	4757.25400
3.10638	0.00000	4757.25400
3.11022	0.00000	4757.25400
3.11405	0.00000	4757.25400
3.11789	0.00000	4757.25400
3.12174	0.00000	4782.36600
3.12557	0.00000	4782.36600
3.12941	0.00000	4782.36600
3.13324	0.00000	4782.36600
3.13707	0.00000	4782.36600
3.14091	0.00000	4782.36600
3.14473	0.00000	4742.64700
3.14857	0.00000	4742.64700
3.15240	0.00000	4742.64700
3.15625	0.00000	4742.64700
3.16008	0.00000	4742.64700
3.16391	0.00000	4742.64700
3.16774	0.00000	4739.88900
3.17157	0.00000	4739.88900
3.17541	0.00000	4739.88900
3.17924	0.00000	4739.88900
3.18308	0.00000	4739.88900
3.18691	0.00000	4739.88900
3.19074	0.00000	4731.61700
3.19457	0.00000	4731.61700
3.19840	0.00000	4731.61700
3.20224	0.00000	4731.61700
3.20608	0.00000	4731.61700
3.20991	0.00000	4709.55900
3.21376	0.00000	4709.55900
3.21759	0.00000	4709.55900
3.22142	0.00000	4709.55900
3.22526	0.00000	4709.55900
3.22910	0.00000	4709.55900
3.23294	0.00000	4737.13200
3.23677	0.00000	4737.13200
3.24063	0.00000	4737.13200
3.24446	0.00000	4737.13200
3.24829	0.00000	4737.13200
3.25212	0.00000	4737.13200
3.25595	0.00000	4728.86000
3.25978	0.00000	4728.86000
3.26362	0.00000	4728.86000
3.26745	0.00000	4728.86000
3.27127	0.00000	4728.86000
3.27510	0.00000	4728.86000
3.27894	0.00000	4745.40400
3.28278	0.00000	4745.40400
3.28662	0.00000	4745.40400
3.29045	0.00000	4745.40400
3.29428	0.00000	4745.40400
3.29810	0.00000	4782.36600
3.30194	0.00000	4782.36600
3.30578	0.00000	4782.36600
3.30961	0.00000	4782.36600
3.31345	0.00000	4782.36600
3.31728	0.00000	4782.36600
3.32112	0.00000	4745.40400
3.32495	0.00000	4745.40400
3.32877	0.00000	4745.40400
3.33262	0.00000	4745.40400
3.33646	0.00000	4745.40400
3.34028	0.00000	4745.40400
3.34412	0.00000	4742.64700
3.34799	0.00000	4742.64700
3.35185	0.00000	4742.64700
3.35568	0.00000	4742.64700
3.35951	0.00000	4742.64700
3.36334	0.00000	4742.64700
3.36718	0.00000	4739.88900
3.37101	0.00000	4739.88900
3.37484	0.00000	4739.88900
3.37866	0.00000	4739.88900
3.38250	0.00000	4739.88900
3.38634	0.00000	4739.88900
3.39017	0.00000	4737.13200
3.39401	0.00000	4737.13200
3.39784	0.00000	4737.13200
3.40167	0.00000	4737.13200
3.40549	0.00000	4737.13200
3.40933	0.00000	4776.78500
3.41319	0.00000	4776.78500
3.41702	0.00000	4776.78500
3.42086	0.00000	4776.78500
3.42470	0.00000	4776.78500
3.42855	0.00000	4776.78500
3.43239	0.00000	4734.37500
3.43622	0.00000	4734.37500
3.44005	0.00000	4734.37500
3.44388	0.00000	4734.37500
3.44773	0.00000	4734.37500
3.45156	0.00000	4734.37500
3.45539	0.00000	4739.88900
3.45922	0.00000	4739.88900
3.46305	0.00000	4739.88900
3.46688	0.00000	4739.88900
3.47071	0.00000	4739.88900
3.47454	0.00000	4739.88900
3.47837	0.00000	4690.22500
3.48222	0.00000	4690.22500
3.48604	0.00000	4690.22500
3.48987	0.00000	4690.22500
3.49371	0.00000	4690.22500
3.49755	0.00000	4723.34500
3.50137	0.00000	4723.34500
3.50520	0.00000	4723.34500
3.50903	0.00000	4723.34500
3.51286	0.00000	4723.34500
3.51670	0.00000	4723.34500
3.52053	0.00000	4765.62500
3.52436	0.00000	4765.62500
3.52819	0.00000	4765.62500
3.53201	0.00000	4765.62500
3.53586	0.00000	4765.62500
3.53969	0.00000	4765.62500
3.54353	0.00000	4737.13200
3.54737	0.00000	4737.13200
3.55121	0.00000	4737.13200
3.55503	0.00000	4737.13200
3.55887	0.00000	4737.13200
3.56270	0.00000	4737.13200
3.56654	0.00000	4742.64700
3.57036	0.00000	4742.64700
3.57421	0.00000	4742.64700
3.57804	0.00000	4742.64700
3.58188	0.00000	4742.64700
3.58571	0.00000	4742.64700
3.58954	0.00000	4737.13200
3.59337	0.00000	4737.13200
3.59722	0.00000	4737.13200
3.60106	0.00000	4737.13200
3.60490	0.00000	4737.13200
3.60873	0.00000	4728.86000
3.61257	0.00000	4728.86000
3.61640	0.00000	4728.86000
3.62023	0.00000	4728.86000
3.62406	0.00000	4728.86000
3.62790	0.00000	4728.86000
3.63174	0.00000	4742.64700
3.63557	0.00000	4742.64700
3.63942	0.00000	4742.64700
3.64325	0.00000	4742.64700
3.64709	0.00000	4742.64700
3.65092	0.00000	4742.64700
3.65476	0.00000	4728.86000
3.65858	0.00000	4728.86000
3.66243	0.00000	4728.86000
3.66626	0.00000	4728.86000
3.67010	0.00000	4728.86000
3.67393	0.00000	4728.86000
3.67776	0.00000	4731.61700
3.68160	0.00000	4731.61700
3.68543	0.00000	4731.61700
3.68926	0.00000	4731.61700
3.69308	0.00000	4731.61700
3.69691	0.00000	4731.61700
3.70073	0.00000	4706.80200
3.70457	0.00000	4706.80200
3.70841	0.00000	4706.80200
3.71224	0.00000	4706.80200
3.71607	0.00000	4706.80200
3.71991	0.00000	4768.41500
3.72376	0.00000	4768.41500
3.72758	0.00000	4768.41500
3.73142	0.00000	4768.41500
3.73526	0.00000	4768.41500
3.73910	0.00000	4768.41500
3.74294	0.00000	4734.37500
3.74678	0.00000	4734.37500
3.75061	0.00000	4734.37500
3.75445	0.00000	4734.37500
3.75828	0.00000	4734.37500
3.76211	0.00000	4734.37500
3.76594	0.00000	4726.10300
3.76977	0.00000	4726.10300
3.77361	0.00000	4726.10300
3.77746	0.00000	4726.10300
3.78129	0.00000	4726.10300
3.78513	0.00000	4726.10300
3.78896	0.00000	4737.13200
3.79277	0.00000	4737.13200
3.79661	0.00000	4737.13200
3.80045	0.00000	4737.13200
3.80428	0.00000	4737.13200
3.80811	0.00000	4765.62500
3.81194	0.00000	4765.62500
3.81578	0.00000	4765.62500
3.81961	0.00000	4765.62500
3.82344	0.00000	4765.62500
3.82728	0.00000	4765.62500
3.83111	0.00000	4726.10300
3.83495	0.00000	4726.10300
3.83878	0.00000	4726.10300
3.84262	0.00000	4726.10300
3.84645	0.00000	4726.10300
3.85029	0.00000	4726.10300
3.85412	0.00000	4745.40400
3.85795	0.00000	4745.40400
3.86179	0.00000	4745.40400
3.86563	0.00000	4745.40400
3.86946	0.00000	4745.40400
3.87329	0.00000	4745.40400
3.87713	0.00000	4731.61700
3.88096	0.00000	4731.61700
3.88477	0.00000	4731.61700
3.88861	0.00000	4731.61700
3.89246	0.00000	4731.61700
3.89629	0.00000	4731.61700
3.90011	0.00000	4706.80200
3.90394	0.00000	4706.80200
3.90777	0.00000	4706.80200
3.91161	0.00000	4706.80200
3.91544	0.00000	4706.80200
3.91927	0.00000	4701.28600
3.92310	0.00000	4701.28600
3.92694	0.00000	4701.28600
3.93078	0.00000	4701.28600
3.93461	0.00000	4701.28600
3.93844	0.00000	4701.28600
3.94228	0.00000	4734.37500
3.94611	0.00000	4734.37500
3.94994	0.00000	4734.37500
3.95378	0.00000	4734.37500
3.95762	0.00000	4734.37500
3.96144	0.00000	4734.37500
3.96528	0.00000	4734.37500
3.96912	0.00000	4734.37500
3.97295	0.00000	4734.37500
3.97677	0.00000	4734.37500
3.98061	0.00000	4734.37500
3.98444	0.00000	4734.37500
3.98828	0.00000	4737.13200
3.99212	0.00000	4737.13200
3.99594	0.00000	4737.13200
3.99977	0.00000	4737.13200
4.00360	0.00000	4737.13200
4.00743	0.00000	4757.25400
4.01127	0.00000	4757.25400
4.01509	0.00000	4757.25400
4.01892	0.00000	4757.25400
4.02277	0.00000	4757.25400
4.02659	0.00000	4757.25400
4.03043	0.00000	4768.41500
4.03426	0.00000	4768.41500
4.03810	0.00000	4768.41500
4.04194	0.00000	4768.41500
4.04576	0.00000	4768.41500
4.04959	0.00000	4768.41500
4.05343	0.00000	4726.10300
4.05727	0.00000	4726.10300
4.06110	0.00000	4726.10300
4.06494	0.00000	4726.10300
4.06877	0.00000	4726.10300
4.07260	0.00000	4726.10300
4.07643	0.00000	4750.91900
4.08028	0.00000	4750.91900
4.08412	0.00000	4750.91900
4.08795	0.00000	4750.91900
4.09179	0.00000	4750.91900
4.09563	0.00000	4750.91900
4.09945	0.00000	4779.57500
4.10328	0.00000	4779.57500
4.10711	0.00000	4779.57500
4.11094	0.00000	4779.57500
4.11478	0.00000	4779.57500
4.11863	0.00000	4706.80200
4.12250	0.00000	4706.80200
4.12635	0.00000	4706.80200
4.13019	0.00000	4706.80200
4.13404	0.00000	4706.80200
4.13788	0.00000	4706.80200
4.14173	0.00000	4748.16100
4.14556	0.00000	4748.16100
4.14940	0.00000	4748.16100
4.15323	0.00000	4748.16100
4.15709	0.00000	4748.16100
4.16092	0.00000	4748.16100
4.16476	0.00000	4742.64700
4.16861	0.00000	4742.64700
4.17244	0.00000	4742.64700
4.17627	0.00000	4742.64700
4.18010	0.00000	4742.64700
4.18393	0.00000	4742.64700
4.18776	0.00000	4731.61700
4.19160	0.00000	4731.61700
4.19543	0.00000	4731.61700
4.19926	0.00000	4731.61700
4.20309	0.00000	4731.61700
4.20692	0.00000	4715.07300
4.21077	0.00000	4715.07300
4.21461	0.00000	4715.07300
4.21843	0.00000	4715.07300
4.22226	0.00000	4715.07300
4.22609	0.00000	4715.07300
4.22993	0.00000	4728.86000
4.23377	0.00000	4728.86000
4.23759	0.00000	4728.86000
4.24143	0.00000	4728.86000
4.24527	0.00000	4728.86000
4.24911	0.00000	4728.86000
4.25294	0.00000	4737.13200
4.25677	0.00000	4737.13200
4.26061	0.00000	4737.13200
4.26444	0.00000	4737.13200
4.26827	0.00000	4737.13200
4.27210	0.00000	4737.13200
4.27592	0.00000	4728.86000
4.27976	0.00000	4728.86000
4.28359	0.00000	4728.86000
4.28741	0.00000	4728.86000
4.29125	0.00000	4728.86000
4.29509	0.00000	4762.83500
4.29892	0.00000	4762.83500
4.30275	0.00000	4762.83500
4.30659	0.00000	4762.83500
4.31043	0.00000	4762.83500
4.31428	0.00000	4762.83500
4.31812	0.00000	4765.62500
4.32195	0.00000	4765.62500
4.32578	0.00000	4765.62500
4.32962	0.00000	4765.62500
4.33345	0.00000	4765.62500
4.33730	0.00000	4765.62500
4.34113	0.00000	4731.61700
4.34496	0.00000	4731.61700
4.34884	0.00000	4731.61700
4.35268	0.00000	4731.61700
4.35652	0.00000	4731.61700
4.36036	0.00000	4731.61700
4.36420	0.00000	4739.88900
4.36803	0.00000	4739.88900
4.37187	0.00000	4739.88900
4.37572	0.00000	4739.88900
4.37955	0.00000	4739.88900
4.38340	0.00000	4739.88900
4.38723	0.00000	4742.64700
4.39106	0.00000	4742.64700
4.39489	0.00000	4742.64700
4.39872	0.00000	4742.64700
4.40255	0.00000	4742.64700
4.40639	0.00000	4706.80200
4.41025	0.00000	4706.80200
4.41409	0.00000	4706.80200
4.41792	0.00000	4706.80200
4.42175	0.00000	4706.80200
4.42559	0.00000	4706.80200
4.42942	0.00000	4728.86000
4.43328	0.00000	4728.86000
4.43715	0.00000	4728.86000
4.44099	0.00000	4728.86000
4.44484	0.00000	4728.86000
4.44868	0.00000	4728.86000
4.45252	0.00000	4728.86000
4.45635	0.00000	4728.86000
4.46020	0.00000	4728.86000
4.46403	0.00000	4728.86000
4.46789	0.00000	4728.86000
4.47172	0.00000	4728.86000
4.47557	0.00000	4739.88900
4.47940	0.00000	4739.88900
4.48325	0.00000	4739.88900
4.48709	0.00000	4739.88900
4.49092	0.00000	4739.88900
4.49475	0.00000	4706.80200
4.49858	0.00000	4706.80200
4.50240	0.00000	4706.80200
4.50624	0.00000	4706.80200
4.51009	0.00000	4706.80200
4.51392	0.00000	4706.80200
4.51774	0.00000	4773.99500
4.52157	0.00000	4773.99500
4.52540	0.00000	4773.99500
4.52924	0.00000	4773.99500
4.53308	0.00000	4773.99500
4.53692	0.00000	4773.99500
4.54076	0.00000	4734.37500
4.54458	0.00000	4734.37500
4.54842	0.00000	4734.37500
4.55225	0.00000	4734.37500
4.55608	0.00000	4734.37500
4.55992	0.00000	4734.37500
4.56374	0.00000	4734.37500
4.56757	0.00000	4734.37500
4.57142	0.00000	4734.37500
4.57525	0.00000	4734.37500
4.57909	0.00000	4734.37500
4.58292	0.00000	4734.37500
4.58674	0.00000	4720.58800
4.59057	0.00000	4720.58800
4.59440	0.00000	4720.58800
4.59823	0.00000	4720.58800
4.60205	0.00000	4720.58800
4.60589	0.00000	4760.04500
4.60973	0.00000	4760.04500
4.61355	0.00000	4760.04500
4.61738	0.00000	4760.04500
4.62122	0.00000	4760.04500
4.62507	0.00000	4760.04500
4.62889	0.00000	4726.10300
4.63273	0.00000	4726.10300
4.63657	0.00000	4726.10300
4.64040	0.00000	4726.10300
4.64424	0.00000	4726.10300
4.64808	0.00000	4726.10300
4.65191	0.00000	4779.57500
4.65574	0.00000	4779.57500
4.65956	0.00000	4779.57500
4.66339	0.00000	4779.57500
4.66723	0.00000	4779.57500
4.67105	0.00000	4779.57500
4.67488	0.00000	4737.13200
4.67872	0.00000	4737.13200
4.68255	0.00000	4737.13200
4.68639	0.00000	4737.13200
4.69022	0.00000	4737.13200
4.69404	0.00000	4757.25400
4.69788	0.00000	4757.25400
4.70170	0.00000	4757.25400
4.70554	0.00000	4757.25400
4.70937	0.00000	4757.25400
4.71320	0.00000	4757.25400
4.71704	0.00000	4723.34500
4.72088	0.00000	4723.34500
4.72471	0.00000	4723.34500
4.72855	0.00000	4723.34500
4.73240	0.00000	4723.34500
4.73624	0.00000	4723.34500
4.74007	0.00000	4687.50000
4.74391	0.00000	4687.50000
4.74776	0.00000	4687.50000
4.75160	0.00000	4687.50000
4.75543	0.00000	4687.50000
4.75926	0.00000	4687.50000
4.76309	0.00000	4728.86000
4.76692	0.00000	4728.86000
4.77075	0.00000	4728.86000
4.77459	0.00000	4728.86000
4.77842	0.00000	4728.86000
4.78225	0.00000	4728.86000
4.78608	0.00000	4712.31600
4.78996	0.00000	4712.31600
4.79379	0.00000	4712.31600
4.79764	0.00000	4712.31600
4.80147	0.00000	4712.31600
4.80531	0.00000	4693.01400
4.80917	0.00000	4693.01400
4.81303	0.00000	4693.01400
4.81687	0.00000	4693.01400
4.82071	0.00000	4693.01400
4.82454	0.00000	4693.01400
4.82838	0.00000	4750.91900
4.83221	0.00000	4750.91900
4.83606	0.00000	4750.91900
4.83989	0.00000	4750.91900
4.84372	0.00000	4750.91900
4.84756	0.00000	4750.91900
4.85140	0.00000	4745.40400
4.85523	0.00000	4745.40400
4.85906	0.00000	4745.40400
4.86289	0.00000	4745.40400
4.86672	0.00000	4745.40400
4.87055	0.00000	4745.40400
4.87439	0.00000	4728.86000
4.87822	0.00000	4728.86000
4.88206	0.00000	4728.86000
4.88590	0.00000	4728.86000
4.88974	0.00000	4728.86000
4.89357	0.00000	4771.20500
4.89742	0.00000	4771.20500
4.90125	0.00000	4771.20500
4.90508	0.00000	4771.20500
4.90891	0.00000	4771.20500
4.91275	0.00000	4771.20500
4.91659	0.00000	4731.61700
4.92043	0.00000	4731.61700
4.92426	0.00000	4731.61700
4.92809	0.00000	4731.61700
4.93193	0.00000	4731.61700
4.93576	0.00000	4731.61700
4.93959	0.00000	4748.16100
4.94342	0.00000	4748.16100
4.94725	0.00000	4748.16100
4.95108	0.00000	4748.16100
4.95492	0.00000	4748.16100
4.95876	0.00000	4748.16100
4.96259	0.00000	4745.40400
4.96643	0.00000	4745.40400
4.97027	0.00000	4745.40400
4.97410	0.00000	4745.40400
4.97793	0.00000	4745.40400
4.98176	0.00000	4745.40400
4.98558	0.00000	4726.10300
4.98941	0.00000	4726.10300
4.99326	0.00000	4726.10300
4.99709	0.00000	4726.10300
5.00145	0.00000	4726.10300
5.00533	0.00000	4771.20500
5.00920	0.00000	4771.20500
5.01303	0.00000	4771.20500
5.01689	0.00000	4771.20500
5.02073	0.00000	4771.20500
5.02457	0.00000	4771.20500
5.02842	0.00000	4764.70600
5.03231	0.00000	4764.70600
5.03618	0.00000	4764.70600
5.04003	0.00000	4764.70600
5.04387	0.00000	4764.70600
5.04771	0.00000	4764.70600
5.05154	0.00000	4870.68900
5.05540	0.00000	4870.68900
5.05924	0.00000	4870.68900
5.06309	0.00000	4870.68900
5.06692	0.00000	4870.68900
5.07076	0.00000	4870.68900
5.07459	0.00000	4966.64300
5.07844	0.00000	4966.64300
5.08227	0.00000	4966.64300
5.08610	0.00000	4966.64300
5.08996	0.00000	4966.64300
5.09380	0.00000	4966.64300
5.09764	0.00000	5024.89700
5.10147	0.00000	5024.89700
5.10530	0.00000	5024.89700
5.10915	0.00000	5024.89700
5.11299	0.00000	5024.89700
5.11682	0.00000	5024.89700
5.12066	0.00000	5050.40300
5.12453	0.00000	5050.40300
5.12837	0.00000	5050.40300
5.13222	0.00000	5050.40300
5.13607	0.00000	5050.40300
5.13990	0.00000	5050.40300
5.14375	0.00000	5050.40300
5.14764	0.00000	5128.82300
5.15149	0.00000	5128.82300
5.15535	0.00000	5128.82300
5.15921	0.00000	5128.82300
5.16304	0.00000	5128.82300
5.16688	0.00000	5128.82300
5.17072	0.00000	5183.67700
5.17455	0.00000	5183.67700
5.17840	0.00000	5183.67700
5.18224	0.00000	5183.67700
5.18608	0.00000	5183.67700
5.18992	0.00000	5183.67700
5.19375	0.00000	5183.67700
5.19758	0.00000	5210.52600
5.20142	0.00000	5210.52600
5.20527	0.00000	5210.52600
5.20911	0.00000	5210.52600
5.21294	0.00000	5210.52600
5.21677	0.00000	5210.52600
5.22060	0.00000	5247.53200
5.22444	0.00000	5247.53200
5.22827	0.00000	5247.53200
5.23212	0.00000	5247.53200
5.23596	0.00000	5247.53200
5.23981	0.00000	5247.53200
5.24366	0.00000	5247.53200
5.24750	0.00000	5261.23000
5.25133	0.00000	5261.23000
5.25517	0.00000	5261.23000
5.25901	0.00000	5261.23000
5.26286	0.00000	5261.23000
5.26669	0.00000	5261.23000
5.27054	0.00000	5270.99600
5.27438	0.00000	5270.99600
5.27822	0.00000	5270.99600
5.28206	0.00000	5270.99600
5.28590	0.00000	5270.99600
5.28974	0.00000	5270.99600
5.29359	0.00000	5270.99600
5.29742	0.00000	5267.39600
5.30126	0.00000	5267.39600
5.30510	0.00000	5267.39600
5.30894	0.00000	5267.39600
5.31277	0.00000	5267.39600
5.31661	0.00000	5267.39600
5.32046	0.00000	5264.98000
5.32430	0.00000	5264.98000
5.32813	0.00000	5264.98000
5.33197	0.00000	5264.98000
5.33581	0.00000	5264.98000
5.33964	0.00000	5264.98000
5.34348	0.00000	5264.98000
5.34735	0.00000	5261.48000
5.35121	0.00000	5261.48000
5.35505	0.00000	5261.48000
5.35888	0.00000	5261.48000
5.36273	0.00000	5261.48000
5.36657	0.00000	5261.48000
5.37041	0.00000	5298.80800
5.37424	0.00000	5298.80800
5.37807	0.00000	5298.80800
5.38191	0.00000	5298.80800
5.38575	0.00000	5298.80800
5.38959	0.00000	5298.80800
5.39342	0.00000	5298.80800
5.39726	0.00000	5315.72100
5.40110	0.00000	5315.72100
5.40493	0.00000	5315.72100
5.40878	0.00000	5315.72100
5.41274	0.00000	5315.72100
5.41665	0.00000	5315.72100
5.42050	0.00000	5315.72100
5.42434	0.00000	5299.74500
5.42817	0.00000	5299.74500
5.43203	0.00000	5299.74500
5.43588	0.00000	5299.74500
5.43973	0.00000	5299.74500
5.44358	0.00000	5299.74500
5.44744	0.00000	5268.65400
5.45130	0.00000	5268.65400
5.45514	0.00000	5268.65400
5.45898	0.00000	5268.65400
5.46282	0.00000	5268.65400
5.46666	0.00000	5268.65400
5.47051	0.00000	5268.65400
5.47434	0.00000	5302.13600
5.47819	0.00000	5302.13600
5.48202	0.00000	5302.13600
5.48588	0.00000	5302.13600
5.48971	0.00000	5302.13600
5.49356	0.00000	5302.13600
5.49741	0.00000	5302.13600
5.50124	0.00000	5292.57000
5.50509	0.00000	5292.57000
5.50893	0.00000	5292.57000
5.51277	0.00000	5292.57000
5.51661	0.00000	5292.57000
5.52044	0.00000	5292.57000
5.52429	0.00000	5332.63500
5.52813	0.00000	5332.63500
5.53197	0.00000	5332.63500
5.53580	0.00000	5332.63500
5.53964	0.00000	5332.63500
5.54349	0.00000	5332.63500
5.54734	0.00000	5332.63500
5.55117	0.00000	5309.31100
5.55501	0.00000	5309.31100
5.55884	0.00000	5309.31100
5.56267	0.00000	5309.31100
5.56651	0.00000	5309.31100
5.57034	0.00000	5309.31100
5.57418	0.00000	5335.05100
5.57802	0.00000	5335.05100
5.58187	0.00000	5335.05100
5.58570	0.00000	5335.05100
5.58954	0.00000	5335.05100
5.59338	0.00000	5335.05100
5.59721	0.00000	5335.05100
5.60106	0.00000	5294.96200
5.60490	0.00000	5294.96200
5.60874	0.00000	5294.96200
5.61258	0.00000	5294.96200
5.61643	0.00000	5294.96200
5.62026	0.00000	5294.96200
5.62409	0.00000	5294.96200
5.62794	0.00000	5314.09400
5.63177	0.00000	5314.09400
5.63561	0.00000	5314.09400
5.63945	0.00000	5314.09400
5.64329	0.00000	5314.09400
5.64713	0.00000	5314.09400
5.65097	0.00000	5280.61200
5.65482	0.00000	5280.61200
5.65867	0.00000	5280.61200
5.66251	0.00000	5280.61200
5.66635	0.00000	5280.61200
5.67019	0.00000	5280.61200
5.67403	0.00000	5280.61200
5.67787	0.00000	5314.09400
5.68171	0.00000	5314.09400
5.68555	0.00000	5314.09400
5.68939	0.00000	5314.09400
5.69323	0.00000	5314.09400
5.69708	0.00000	5314.09400
5.70092	0.00000	5314.09400
5.70477	0.00000	5262.78400
5.70860	0.00000	5262.78400
5.71245	0.00000	5262.78400
5.71629	0.00000	5262.78400
5.72012	0.00000	5262.78400
5.72397	0.00000	5262.78400
5.72782	0.00000	5283.00400
5.73167	0.00000	5283.00400
5.73550	0.00000	5283.00400
5.73934	0.00000	5283.00400
5.74318	0.00000	5283.00400
5.74703	0.00000	5283.00400
5.75087	0.00000	5283.00400
5.75470	0.00000	5306.91900
5.75853	0.00000	5306.91900
5.76236	0.00000	5306.91900
5.76620	0.00000	5306.91900
5.77005	0.00000	5306.91900
5.77389	0.00000	5306.91900
5.77772	0.00000	5306.91900
5.78156	0.00000	5299.74500
5.78540	0.00000	5299.74500
5.78924	0.00000	5299.74500
5.79309	0.00000	5299.74500
5.79693	0.00000	5299.74500
5.80076	0.00000	5299.74500
5.80461	0.00000	5283.00400
5.80844	0.00000	5283.00400
5.81227	0.00000	5283.00400
5.81612	0.00000	5283.00400
5.82005	0.00000	5283.00400
5.82393	0.00000	5283.00400
5.82779	0.00000	5283.00400
5.83163	0.00000	5314.09400
5.83548	0.00000	5314.09400
5.83933	0.00000	5314.09400
5.84316	0.00000	5314.09400
5.84700	0.00000	5314.09400
5.85084	0.00000	5314.09400
5.85468	0.00000	5280.61200
5.85852	0.00000	5280.61200
5.86236	0.00000	5280.61200
5.86621	0.00000	5280.61200
5.87003	0.00000	5280.61200
5.87388	0.00000	5280.61200
5.87772	0.00000	5280.61200
5.88156	0.00000	5299.74500
5.88541	0.00000	5299.74500
5.88925	0.00000	5299.74500
5.89309	0.00000	5299.74500
5.89694	0.00000	5299.74500
5.90078	0.00000	5299.74500
5.90461	0.00000	5299.74500
5.90845	0.00000	5314.09400
5.91229	0.00000	5314.09400
5.91613	0.00000	5314.09400
5.91997	0.00000	5314.09400
5.92381	0.00000	5314.09400
5.92764	0.00000	5314.09400
5.93149	0.00000	5332.63500
5.93533	0.00000	5332.63500
5.93916	0.00000	5332.63500
5.94299	0.00000	5332.63500
5.94685	0.00000	5332.63500
5.95069	0.00000	5332.63500
5.95452	0.00000	5332.63500
5.95836	0.00000	5306.91900
5.96221	0.00000	5306.91900
5.96605	0.00000	5306.91900
5.96988	0.00000	5306.91900
5.97372	0.00000	5306.91900
5.97757	0.00000	5306.91900
5.98140	0.00000	5306.91900
5.98525	0.00000	5306.91900
5.98909	0.00000	5306.91900
5.99293	0.00000	5306.91900
5.99678	0.00000	5306.91900
6.00063	0.00000	5306.91900
6.00449	0.00000	5306.91900
6.00835	0.00000	5285.39500
6.01221	0.00000	5285.39500
6.01605	0.00000	5285.39500
6.01989	0.00000	5285.39500
6.02374	0.00000	5285.39500
6.02759	0.00000	5285.39500
6.03143	0.00000	5285.39500
6.03527	0.00000	5316.48600
6.03911	0.00000	5316.48600
6.04295	0.00000	5316.48600
6.04683	0.00000	5316.48600
6.05071	0.00000	5316.48600
6.05457	0.00000	5316.48600
6.05842	0.00000	5339.88400
6.06225	0.00000	5339.88400
6.06610	0.00000	5339.88400
6.06993	0.00000	5339.88400
6.07377	0.00000	5339.88400
6.07761	0.00000	5339.88400
6.08146	0.00000	5339.88400
6.08529	0.00000	5292.57000
6.08914	0.00000	5292.57000
6.09298	0.00000	5292.57000
6.09682	0.00000	5292.57000
6.10067	0.00000	5292.57000
6.10452	0.00000	5292.57000
6.10836	0.00000	5292.57000
6.11219	0.00000	5262.78400
6.11603	0.00000	5262.78400
6.11987	0.00000	5262.78400
6.12371	0.00000	5262.78400
6.12755	0.00000	5262.78400
6.13140	0.00000	5262.78400
6.13524	0.00000	5280.61200
6.13910	0.00000	5280.61200
6.14294	0.00000	5280.61200
6.14678	0.00000	5280.61200
6.15061	0.00000	5280.61200
6.15446	0.00000	5280.61200
6.15830	0.00000	5280.61200
6.16214	0.00000	5311.70200
6.16600	0.00000	5311.70200
6.16984	0.00000	5311.70200
6.17369	0.00000	5311.70200
6.17752	0.00000	5311.70200
6.18137	0.00000	5311.70200
6.18521	0.00000	5311.70200
6.18905	0.00000	5262.78400
6.19290	0.00000	5262.78400
6.19674	0.00000	5262.78400
6.20060	0.00000	5262.78400
6.20445	0.00000	5262.78400
6.20830	0.00000	5262.78400
6.21214	0.00000	5287.78700
6.21597	0.00000	5287.78700
6.21982	0.00000	5287.78700
6.22366	0.00000	5287.78700
6.22749	0.00000	5287.78700
6.23134	0.00000	5287.78700
6.23517	0.00000	5287.78700
6.23902	0.00000	5314.09400
6.24285	0.00000	5314.09400
6.24669	0.00000	5314.09400
6.25053	0.00000	5314.09400
6.25438	0.00000	5314.09400
6.25823	0.00000	5314.09400
6.26207	0.00000	5314.09400
6.26592	0.00000	5299.74500
6.26977	0.00000	5299.74500
6.27362	0.00000	5299.74500
6.27747	0.00000	5299.74500
6.28130	0.00000	5299.74500
6.28515	0.00000	5299.74500
6.28899	0.00000	5287.78700
6.29283	0.00000	5287.78700
6.29667	0.00000	5287.78700
6.30052	0.00000	5287.78700
6.30436	0.00000	5287.78700
6.30821	0.00000	5287.78700
6.31204	0.00000	5287.78700
6.31588	0.00000	5314.09400
6.31973	0.00000	5314.09400
6.32357	0.00000	5314.09400
6.32741	0.00000	5314.09400
6.33124	0.00000	5314.09400
6.33507	0.00000	5314.09400
6.33891	0.00000	5285.39500
6.34274	0.00000	5285.39500
6.34662	0.00000	5285.39500
6.35047	0.00000	5285.39500
6.35432	0.00000	5285.39500
6.35817	0.00000	5285.39500
6.36202	0.00000	5285.39500
6.36585	0.00000	5344.71600
6.36970	0.00000	5344.71600
6.37353	0.00000	5344.71600
6.37738	0.00000	5344.71600
6.38122	0.00000	5344.71600
6.38506	0.00000	5344.71600
6.38889	0.00000	5344.71600
6.39273	0.00000	5314.09400
6.39659	0.00000	5314.09400
6.40042	0.00000	5314.09400
6.40427	0.00000	5314.09400
6.40811	0.00000	5314.09400
6.41194	0.00000	5314.09400
6.41578	0.00000	5332.63500
6.41968	0.00000	5332.63500
6.42353	0.00000	5332.63500
6.42739	0.00000	5332.63500
6.43123	0.00000	5332.63500
6.43508	0.00000	5332.63500
6.43892	0.00000	5332.63500
6.44277	0.00000	5306.91900
6.44662	0.00000	5306.91900
6.45046	0.00000	5306.91900
6.45431	0.00000	5306.91900
6.45816	0.00000	5306.91900
6.46200	0.00000	5306.91900
6.46583	0.00000	5306.91900
6.46967	0.00000	5302.13600
6.47353	0.00000	5302.13600
6.47737	0.00000	5302.13600
6.48122	0.00000	5302.13600
6.48506	0.00000	5302.13600
6.48890	0.00000	5302.13600
6.49274	0.00000	5278.22000
6.49660	0.00000	5278.22000
6.50044	0.00000	5278.22000
6.50429	0.00000	5278.22000
6.50814	0.00000	5278.22000
6.51198	0.00000	5278.22000
6.51583	0.00000	5278.22000
6.51966	0.00000	5309.31100
6.52350	0.00000	5309.31100
6.52734	0.00000	5309.31100
6.53118	0.00000	5309.31100
6.53501	0.00000	5309.31100
6.53886	0.00000	5309.31100
6.54270	0.00000	5280.61200
6.54656	0.00000	5280.61200
6.55042	0.00000	5280.61200
6.55426	0.00000	5280.61200
6.55809	0.00000	5280.61200
6.56194	0.00000	5280.61200
6.56578	0.00000	5280.61200
6.56961	0.00000	5290.17800
6.57345	0.00000	5290.17800
6.57729	0.00000	5290.17800
6.58112	0.00000	5290.17800
6.58496	0.00000	5290.17800
6.58878	0.00000	5290.17800
6.59262	0.00000	5290.17800
6.59646	0.00000	5311.70200
6.60030	0.00000	5311.70200
6.60415	0.00000	5311.70200
6.60799	0.00000	5311.70200
6.61184	0.00000	5311.70200
6.61567	0.00000	5311.70200
6.61951	0.00000	5330.21900
6.62336	0.00000	5330.21900
6.62721	0.00000	5330.21900
6.63105	0.00000	5330.21900
6.63490	0.00000	5330.21900
6.63874	0.00000	5330.21900
6.64258	0.00000	5330.21900
6.64642	0.00000	5299.74500
6.65029	0.00000	5299.74500
6.65413	0.00000	5299.74500
6.65797	0.00000	5299.74500
6.66183	0.00000	5299.74500
6.66567	0.00000	5299.74500
6.66950	0.00000	5299.74500
6.67335	0.00000	5299.74500
6.67721	0.00000	5299.74500
6.68105	0.00000	5299.74500
6.68490	0.00000	5299.74500
6.68874	0.00000	5299.74500
6.69259	0.00000	5299.74500
6.69644	0.00000	5327.80200
6.70030	0.00000	5327.80200
6.70414	0.00000	5327.80200
6.70798	0.00000	5327.80200
6.71183	0.00000	5327.80200
6.71567	0.00000	5327.80200
6.71951	0.00000	5327.80200
6.72336	0.00000	5302.13600
6.72719	0.00000	5302.13600
6.73103	0.00000	5302.13600
6.73487	0.00000	5302.13600
6.73870	0.00000	5302.13600
6.74254	0.00000	5302.13600
6.74639	0.00000	5302.13600
6.75023	0.00000	5285.39500
6.75407	0.00000	5285.39500
6.75792	0.00000	5285.39500
6.76175	0.00000	5285.39500
6.76559	0.00000	5285.39500
6.76942	0.00000	5285.39500
6.77327	0.00000	5330.21900
6.77711	0.00000	5330.21900
6.78095	0.00000	5330.21900
6.78478	0.00000	5330.21900
6.78863	0.00000	5330.21900
6.79247	0.00000	5330.21900
6.79631	0.00000	5330.21900
6.80015	0.00000	5302.13600
6.80399	0.00000	5302.13600
6.80784	0.00000	5302.13600
6.81169	0.00000	5302.13600
6.81552	0.00000	5302.13600
6.81936	0.00000	5302.13600
6.82320	0.00000	5322.97000
6.82706	0.00000	5322.97000
6.83091	0.00000	5322.97000
6.83475	0.00000	5322.97000
6.83858	0.00000	5322.97000
6.84242	0.00000	5322.97000
6.84626	0.00000	5322.97000
6.85011	0.00000	5297.35300
6.85396	0.00000	5297.35300
6.85779	0.00000	5297.35300
6.86164	0.00000	5297.35300
6.86549	0.00000	5297.35300
6.86934	0.00000	5297.35300
6.87317	0.00000	5297.35300
6.87701	0.00000	5297.35300
6.88084	0.00000	5297.35300
6.88468	0.00000	5297.35300
6.88853	0.00000	5297.35300
6.89237	0.00000	5297.35300
6.89621	0.00000	5297.35300
6.90004	0.00000	5268.65400
6.90390	0.00000	5268.65400
6.90774	0.00000	5268.65400
6.91158	0.00000	5268.65400
6.91542	0.00000	5268.65400
6.91926	0.00000	5268.65400
6.92310	0.00000	5268.65400
6.92694	0.00000	5302.13600
6.93079	0.00000	5302.13600
6.93463	0.00000	5302.13600
6.93847	0.00000	5302.13600
6.94230	0.00000	5302.13600
6.94614	0.00000	5302.13600
6.94999	0.00000	5302.13600
6.95383	0.00000	5283.00400
6.95768	0.00000	5283.00400
6.96152	0.00000	5283.00400
6.96536	0.00000	5283.00400
6.96919	0.00000	5283.00400
6.97303	0.00000	5283.00400
6.97686	0.00000	5263.87100
6.98071	0.00000	5263.87100
6.98455	0.00000	5263.87100
6.98839	0.00000	5263.87100
6.99223	0.00000	5263.87100
6.99606	0.00000	5263.87100
6.99990	0.00000	5263.87100
7.00373	0.00000	5290.17800
7.00758	0.00000	5290.17800
7.01143	0.00000	5290.17800
7.01527	0.00000	5290.17800
7.01911	0.00000	5290.17800
7.02295	0.00000	5290.17800
7.02680	0.00000	5318.13700
7.03065	0.00000	5318.13700
7.03450	0.00000	5318.13700
7.03834	0.00000	5318.13700
7.04219	0.00000	5318.13700
7.04603	0.00000	5318.13700
7.04987	0.00000	5318.13700
7.05371	0.00000	5290.17800
7.05756	0.00000	5290.17800
7.06140	0.00000	5290.17800
7.06523	0.00000	5290.17800
7.06906	0.00000	5290.17800
7.07291	0.00000	5290.17800
7.07674	0.00000	5290.17800
7.08059	0.00000	5299.74500
7.08443	0.00000	5299.74500
7.08827	0.00000	5299.74500
7.09211	0.00000	5299.74500
7.09596	0.00000	5299.74500
7.09979	0.00000	5299.74500
7.10364	0.00000	5268.65400
7.10749	0.00000	5268.65400
7.11132	0.00000	5268.65400
7.11516	0.00000	5268.65400
7.11899	0.00000	5268.65400
7.12283	0.00000	5268.65400
7.12668	0.00000	5268.65400
7.13052	0.00000	5290.17800
7.13434	0.00000	5290.17800
7.13819	0.00000	5290.17800
7.14204	0.00000	5290.17800
7.14588	0.00000	5290.17800
7.14971	0.00000	5290.17800
7.15355	0.00000	5290.17800
7.15738	0.00000	5322.97000
7.16121	0.00000	5322.97000
7.16506	0.00000	5322.97000
7.16890	0.00000	5322.97000
7.17274	0.00000	5322.97000
7.17659	0.00000	5322.97000
7.18043	0.00000	5266.26200
7.18428	0.00000	5266.26200
7.18812	0.00000	5266.26200
7.19196	0.00000	5266.26200
7.19580	0.00000	5266.26200
7.19964	0.00000	5266.26200
7.20348	0.00000	5266.26200
7.20731	0.00000	5294.96200
7.21116	0.00000	5294.96200
7.21499	0.00000	5294.96200
7.21884	0.00000	5294.96200
7.22267	0.00000	5294.96200
7.22650	0.00000	5294.96200
7.23035	0.00000	5310.88900
7.23418	0.00000	5310.88900
7.23803	0.00000	5310.88900
7.24187	0.00000	5310.88900
7.24570	0.00000	5310.88900
7.24954	0.00000	5310.88900
7.25338	0.00000	5310.88900
7.25722	0.00000	5290.17800
7.26107	0.00000	5290.17800
7.26493	0.00000	5290.17800
7.26877	0.00000	5290.17800
7.27262	0.00000	5290.17800
7.27645	0.00000	5290.17800
7.28029	0.00000	5290.17800
7.28412	0.00000	5347.13200
7.28796	0.00000	5347.13200
7.29180	0.00000	5347.13200
7.29564	0.00000	5347.13200
7.29948	0.00000	5347.13200
7.30332	0.00000	5347.13200
7.30717	0.00000	5313.30500
7.31100	0.00000	5313.30500
7.31485	0.00000	5313.30500
7.31869	0.00000	5313.30500
7.32252	0.00000	5313.30500
7.32637	0.00000	5313.30500
7.33021	0.00000	5313.30500
7.33406	0.00000	5287.78700
7.33789	0.00000	5287.78700
7.34173	0.00000	5287.78700
7.34558	0.00000	5287.78700
7.34946	0.00000	5287.78700
7.35331	0.00000	5287.78700
7.35717	0.00000	5318.13700
7.36101	0.00000	5318.13700
7.36485	0.00000	5318.13700
7.36868	0.00000	5318.13700
7.37252	0.00000	5318.13700
7.37636	0.00000	5318.13700
7.38021	0.00000	5318.13700
7.38405	0.00000	5330.21900
7.38788	0.00000	5330.21900
7.39172	0.00000	5330.21900
7.39555	0.00000	5330.21900
7.39939	0.00000	5330.21900
7.40324	0.00000	5330.21900
7.40708	0.00000	5330.21900
7.41094	0.00000	5292.57000
7.41478	0.00000	5292.57000
7.41861	0.00000	5292.57000
7.42246	0.00000	5292.57000
7.42630	0.00000	5292.57000
7.43014	0.00000	5292.57000
7.43399	0.00000	5318.13700
7.43784	0.00000	5318.13700
7.44167	0.00000	5318.13700
7.44551	0.00000	5318.13700
7.44936	0.00000	5318.13700
7.45320	0.00000	5318.13700
7.45704	0.00000	5318.13700
7.46087	0.00000	5290.17800
7.46471	0.00000	5290.17800
7.46856	0.00000	5290.17800
7.47240	0.00000	5290.17800
7.47624	0.00000	5290.17800
7.48007	0.00000	5290.17800
7.48392	0.00000	5290.17800
7.48776	0.00000	5285.39500
7.49159	0.00000	5285.39500
7.49542	0.00000	5285.39500
7.49926	0.00000	5285.39500
7.50310	0.00000	5285.39500
7.50694	0.00000	5285.39500
7.51077	0.00000	5313.30500
7.51461	0.00000	5313.30500
7.51845	0.00000	5313.30500
7.52229	0.00000	5313.30500
7.52613	0.00000	5313.30500
7.52997	0.00000	5313.30500
7.53381	0.00000	5313.30500
7.53765	0.00000	5290.17800
7.54149	0.00000	5290.17800
7.54533	0.00000	5290.17800
7.54916	0.00000	5290.17800
7.55300	0.00000	5290.17800
7.55685	0.00000	5290.17800
7.56069	0.00000	5261.48000
7.56454	0.00000	5261.48000
7.56838	0.00000	5261.48000
7.57222	0.00000	5261.48000
7.57606	0.00000	5261.48000
7.57990	0.00000	5261.48000
7.58373	0.00000	5261.48000
7.58758	0.00000	5330.21900
7.59142	0.00000	5330.21900
7.59525	0.00000	5330.21900
7.59909	0.00000	5330.21900
7.60292	0.00000	5330.21900
7.60676	0.00000	5330.21900
7.61061	0.00000	5330.21900
7.61444	0.00000	5285.39500
7.61828	0.00000	5285.39500
7.62213	0.00000	5285.39500
7.62598	0.00000	5285.39500
7.62982	0.00000	5285.39500
7.63365	0.00000	5285.39500
7.63749	0.00000	5259.08800
7.64135	0.00000	5259.08800
7.64518	0.00000	5259.08800
7.64902	0.00000	5259.08800
7.65287	0.00000	5259.08800
7.65671	0.00000	5259.08800
7.66056	0.00000	5259.08800
7.66439	0.00000	5292.57000
7.66824	0.00000	5292.57000
7.67207	0.00000	5292.57000
7.67591	0.00000	5292.57000
7.67975	0.00000	5292.57000
7.68358	0.00000	5292.57000
7.68741	0.00000	5292.57000
7.69124	0.00000	5287.78700
7.69508	0.00000	5287.78700
7.69893	0.00000	5287.78700
7.70277	0.00000	5287.78700
7.70660	0.00000	5287.78700
7.71044	0.00000	5287.78700
7.71430	0.00000	5318.13700
7.71813	0.00000	5318.13700
7.72196	0.00000	5318.13700
7.72581	0.00000	5318.13700
7.72965	0.00000	5318.13700
7.73349	0.00000	5318.13700
7.73734	0.00000	5318.13700
7.74118	0.00000	5344.71600
7.74502	0.00000	5344.71600
7.74887	0.00000	5344.71600
7.75270	0.00000	5344.71600
7.75654	0.00000	5344.71600
7.76039	0.00000	5344.71600
7.76423	0.00000	5315.72100
7.76808	0.00000	5315.72100
7.77192	0.00000	5315.72100
7.77575	0.00000	5315.72100
7.77959	0.00000	5315.72100
7.78343	0.00000	5315.72100
7.78726	0.00000	5315.72100
7.79111	0.00000	5278.22000
7.79495	0.00000	5278.22000
7.79878	0.00000	5278.22000
7.80263	0.00000	5278.22000
7.80646	0.00000	5278.22000
7.81031	0.00000	5278.22000
7.81415	0.00000	5278.22000
7.81799	0.00000	5292.57000
7.82183	0.00000	5292.57000
7.82567	0.00000	5292.57000
7.82951	0.00000	5292.57000
7.83334	0.00000	5292.57000
7.83719	0.00000	5292.57000
7.84103	0.00000	5259.08800
7.84488	0.00000	5259.08800
7.84872	0.00000	5259.08800
7.85256	0.00000	5259.08800
7.85640	0.00000	5259.08800
7.86023	0.00000	5259.08800
7.86407	0.00000	5259.08800
7.86791	0.00000	5290.17800
7.87175	0.00000	5290.17800
7.87558	0.00000	5290.17800
7.87941	0.00000	5290.17800
7.88327	0.00000	5290.17800
7.88711	0.00000	5290.17800
7.89095	0.00000	5290.17800
7.89478	0.00000	5283.00400
7.89863	0.00000	5283.00400
7.90246	0.00000	5283.00400
7.90630	0.00000	5283.00400
7.91014	0.00000	5283.00400
7.91399	0.00000	5283.00400
7.91783	0.00000	5261.48000
7.92167	0.00000	5261.48000
7.92551	0.00000	5261.48000
7.92935	0.00000	5261.48000
7.93320	0.00000	5261.48000
7.93704	0.00000	5261.48000
7.94088	0.00000	5261.48000
7.94472	0.00000	5290.17800
7.94855	0.00000	5290.17800
7.95239	0.00000	5290.17800
7.95623	0.00000	5290.17800
7.96007	0.00000	5290.17800
7.96391	0.00000	5290.17800
7.96775	0.00000	5318.13700
7.97160	0.00000	5318.13700
7.97544	0.00000	5318.13700
7.97929	0.00000	5318.13700
7.98313	0.00000	5318.13700
7.98698	0.00000	5318.13700
7.99081	0.00000	5318.13700
7.99465	0.00000	5278.22000
7.99849	0.00000	5278.22000
8.00232	0.00000	5278.22000
8.00617	0.00000	5278.22000
8.01000	0.00000	5278.22000
8.01385	0.00000	5278.22000
8.01769	0.00000	5278.22000
8.02153	0.00000	5294.96200
8.02537	0.00000	5294.96200
8.02922	0.00000	5294.96200
8.03305	0.00000	5294.96200
8.03689	0.00000	5294.96200
8.04073	0.00000	5294.96200
8.04457	0.00000	5318.13700
8.04841	0.00000	5318.13700
8.05225	0.00000	5318.13700
8.05610	0.00000	5318.13700
8.05993	0.00000	5318.13700
8.06377	0.00000	5318.13700
8.06762	0.00000	5318.13700
8.07146	0.00000	5287.78700
8.07531	0.00000	5287.78700
8.07914	0.00000	5287.78700
8.08297	0.00000	5287.78700
8.08680	0.00000	5287.78700
8.09065	0.00000	5287.78700
8.09449	0.00000	5287.78700
8.09832	0.00000	5330.21900
8.10215	0.00000	5330.21900
8.10598	0.00000	5330.21900
8.10982	0.00000	5330.21900
8.11366	0.00000	5330.21900
8.11750	0.00000	5330.21900
8.12134	0.00000	5318.13700
8.12518	0.00000	5318.13700
8.12902	0.00000	5318.13700
8.13286	0.00000	5318.13700
8.13670	0.00000	5318.13700
8.14055	0.00000	5318.13700
8.14441	0.00000	5318.13700
8.14825	0.00000	5290.17800
8.15209	0.00000	5290.17800
8.15592	0.00000	5290.17800
8.15976	0.00000	5290.17800
8.16362	0.00000	5290.17800
8.16745	0.00000	5290.17800
8.17128	0.00000	5315.72100
8.17514	0.00000	5315.72100
8.17899	0.00000	5315.72100
8.18282	0.00000	5315.72100
8.18667	0.00000	5315.72100
8.19051	0.00000	5315.72100
8.19434	0.00000	5315.72100
8.19818	0.00000	5330.21900
8.20202	0.00000	5330.21900
8.20586	0.00000	5330.21900
8.20969	0.00000	5330.21900
8.21352	0.00000	5330.21900
8.21735	0.00000	5330.21900
8.22119	0.00000	5330.21900
8.22503	0.00000	5290.17800
8.22887	0.00000	5290.17800
8.23271	0.00000	5290.17800
8.23657	0.00000	5290.17800
8.24041	0.00000	5290.17800
8.24425	0.00000	5290.17800
8.24809	0.00000	5318.13700
8.25193	0.00000	5318.13700
8.25577	0.00000	5318.13700
8.25961	0.00000	5318.13700
8.26344	0.00000	5318.13700
8.26727	0.00000	5318.13700
8.27112	0.00000	5318.13700
8.27496	0.00000	5292.57000
8.27880	0.00000	5292.57000
8.28263	0.00000	5292.57000
8.28648	0.00000	5292.57000
8.29031	0.00000	5292.57000
8.29415	0.00000	5292.57000
8.29799	0.00000	5292.57000
8.30181	0.00000	5271.04600
8.30566	0.00000	5271.04600
8.30949	0.00000	5271.04600
8.31333	0.00000	5271.04600
8.31717	0.00000	5271.04600
8.32100	0.00000	5271.04600
8.32485	0.00000	5320.55400
8.32869	0.00000	5320.55400
8.33254	0.00000	5320.55400
8.33637	0.00000	5320.55400
8.34021	0.00000	5320.55400
8.34406	0.00000	5320.55400
8.34794	0.00000	5320.55400
8.35178	0.00000	5292.57000
8.35562	0.00000	5292.57000
8.35946	0.00000	5292.57000
8.36330	0.00000	5292.57000
8.36714	0.00000	5292.57000
8.37098	0.00000	5292.57000
8.37482	0.00000	5259.08800
8.37867	0.00000	5259.08800
8.38251	0.00000	5259.08800
8.38635	0.00000	5259.08800
8.39019	0.00000	5259.08800
8.39403	0.00000	5259.08800
8.39786	0.00000	5259.08800
8.40171	0.00000	5283.00400
8.40558	0.00000	5283.00400
8.40945	0.00000	5283.00400
8.41330	0.00000	5283.00400
8.41716	0.00000	5283.00400
8.42101	0.00000	5283.00400
8.42486	0.00000	5283.00400
8.42870	0.00000	5287.78700
8.43254	0.00000	5287.78700
8.43638	0.00000	5287.78700
8.44023	0.00000	5287.78700
8.44405	0.00000	5287.78700
8.44790	0.00000	5287.78700
8.45174	0.00000	5254.30400
8.45558	0.00000	5254.30400
8.45941	0.00000	5254.30400
8.46324	0.00000	5254.30400
8.46708	0.00000	5254.30400
8.47092	0.00000	5254.30400
8.47475	0.00000	5254.30400
8.47859	0.00000	5283.00400
8.48243	0.00000	5283.00400
8.48627	0.00000	5283.00400
8.49011	0.00000	5283.00400
8.49395	0.00000	5283.00400
8.49778	0.00000	5283.00400
8.50162	0.00000	5306.05600
8.50545	0.00000	5306.05600
8.50930	0.00000	5306.05600
8.51314	0.00000	5306.05600
8.51698	0.00000	5306.05600
8.52083	0.00000	5306.05600
8.52468	0.00000	5306.05600
8.52854	0.00000	5315.72100
8.53237	0.00000	5315.72100
8.53622	0.00000	5315.72100
8.54006	0.00000	5315.72100
8.54390	0.00000	5315.72100
8.54774	0.00000	5315.72100
8.55159	0.00000	5315.72100
8.55545	0.00000	5283.00400
8.55929	0.00000	5283.00400
8.56313	0.00000	5283.00400
8.56697	0.00000	5283.00400
8.57083	0.00000	5283.00400
8.57468	0.00000	5283.00400
8.57853	0.00000	5251.91300
8.58237	0.00000	5251.91300
8.58622	0.00000	5251.91300
8.59007	0.00000	5251.91300
8.59390	0.00000	5251.91300
8.59774	0.00000	5251.91300
8.60157	0.00000	5251.91300
8.60542	0.00000	5285.39500
8.60925	0.00000	5285.39500
8.61310	0.00000	5285.39500
8.61693	0.00000	5285.39500
8.62078	0.00000	5285.39500
8.62462	0.00000	5285.39500
8.62845	0.00000	5285.39500
8.63228	0.00000	5318.13700
8.63612	0.00000	5318.13700
8.63997	0.00000	5318.13700
8.64380	0.00000	5318.13700
8.64763	0.00000	5318.13700
8.65147	0.00000	5318.13700
8.65532	0.00000	5308.47300
8.65916	0.00000	5308.47300
8.66300	0.00000	5308.47300
8.66684	0.00000	5308.47300
8.67068	0.00000	5308.47300
8.67452	0.00000	5308.47300
8.67836	0.00000	5308.47300
8.68220	0.00000	5275.82900
8.68603	0.00000	5275.82900
8.68987	0.00000	5275.82900
8.69372	0.00000	5275.82900
8.69756	0.00000	5275.82900
8.70140	0.00000	5275.82900
8.70524	0.00000	5308.47300
8.70909	0.00000	5308.47300
8.71293	0.00000	5308.47300
8.71677	0.00000	5308.47300
8.72062	0.00000	5308.47300
8.72447	0.00000	5308.47300
8.72833	0.00000	5308.47300
8.73216	0.00000	5283.00400
8.73600	0.00000	5283.00400
8.73985	0.00000	5283.00400
8.74369	0.00000	5283.00400
8.74756	0.00000	5283.00400
8.75141	0.00000	5283.00400
8.75525	0.00000	5283.00400
8.75908	0.00000	5271.04600
8.76292	0.00000	5271.04600
8.76676	0.00000	5271.04600
8.77061	0.00000	5271.04600
8.77445	0.00000	5271.04600
8.77829	0.00000	5271.04600
8.78212	0.00000	5249.52100
8.78595	0.00000	5249.52100
8.78979	0.00000	5249.52100
8.79363	0.00000	5249.52100
8.79747	0.00000	5249.52100
8.80131	0.00000	5249.52100
8.80515	0.00000	5249.52100
8.80898	0.00000	5280.61200
8.81277	0.00000	5280.61200
8.81661	0.00000	5280.61200
8.82045	0.00000	5280.61200
8.82429	0.00000	5280.61200
8.82813	0.00000	5280.61200
8.83197	0.00000	5308.47300
8.83580	0.00000	5308.47300
8.83965	0.00000	5308.47300
8.84349	0.00000	5308.47300
8.84732	0.00000	5308.47300
8.85116	0.00000	5308.47300
8.85499	0.00000	5308.47300
8.85883	0.00000	5327.80200
8.86267	0.00000	5327.80200
8.86651	0.00000	5327.80200
8.87035	0.00000	5327.80200
8.87419	0.00000	5327.80200
8.87804	0.00000	5327.80200
8.88188	0.00000	5327.80200
8.88571	0.00000	5287.78700
8.88955	0.00000	5287.78700
8.89340	0.00000	5287.78700
8.89723	0.00000	5287.78700
8.90107	0.00000	5287.78700
8.90491	0.00000	5287.78700
8.90875	0.00000	5303.64000
8.91259	0.00000	5303.64000
8.91643	0.00000	5303.64000
8.92027	0.00000	5303.64000
8.92411	0.00000	5303.64000
8.92795	0.00000	5303.64000
8.93179	0.00000	5303.64000
8.93563	0.00000	5285.39500
8.93948	0.00000	5285.39500
8.94332	0.00000	5285.39500
8.94715	0.00000	5285.39500
8.95100	0.00000	5285.39500
8.95485	0.00000	5285.39500
8.95870	0.00000	5285.39500
8.96253	0.00000	5275.82900
8.96636	0.00000	5275.82900
8.97022	0.00000	5275.82900
8.97406	0.00000	5275.82900
8.97790	0.00000	5275.82900
8.98173	0.00000	5275.82900
8.98558	0.00000	5263.87100
8.98942	0.00000	5263.87100
8.99327	0.00000	5263.87100
8.99710	0.00000	5263.87100
9.00094	0.00000	5263.87100
9.00477	0.00000	5263.87100
9.00862	0.00000	5263.87100
9.01247	0.00000	5299.74500
9.01631	0.00000	5299.74500
9.02015	0.00000	5299.74500
9.02399	0.00000	5299.74500
9.02783	0.00000	5299.74500
9.03167	0.00000	5299.74500
9.03551	0.00000	5320.55400
9.03935	0.00000	5320.55400
9.04318	0.00000	5320.55400
9.04702	0.00000	5320.55400
9.05086	0.00000	5320.55400
9.05470	0.00000	5320.55400
9.05855	0.00000	5320.55400
9.06239	0.00000	5275.82900
9.06623	0.00000	5275.82900
9.07007	0.00000	5275.82900
9.07391	0.00000	5275.82900
9.07775	0.00000	5275.82900
9.08159	0.00000	5275.82900
9.08544	0.00000	5275.82900
9.08928	0.00000	5339.88400
9.09312	0.00000	5339.88400
9.09695	0.00000	5339.88400
9.10078	0.00000	5339.88400
9.10462	0.00000	5339.88400
9.10846	0.00000	5339.88400
9.11231	0.00000	5313.30500
9.11615	0.00000	5313.30500
9.11998	0.00000	5313.30500
9.12382	0.00000	5313.30500
9.12766	0.00000	5313.30500
9.13149	0.00000	5313.30500
9.13533	0.00000	5313.30500
9.13917	0.00000	5285.39500
9.14301	0.00000	5285.39500
9.14685	0.00000	5285.39500
9.15068	0.00000	5285.39500
9.15453	0.00000	5285.39500
9.15837	0.00000	5285.39500
9.16221	0.00000	5285.39500
9.16604	0.00000	5327.80200
9.16990	0.00000	5327.80200
9.17374	0.00000	5327.80200
9.17757	0.00000	5327.80200
9.18142	0.00000	5327.80200
9.18526	0.00000	5327.80200
9.18910	0.00000	5315.72100
9.19294	0.00000	5315.72100
9.19678	0.00000	5315.72100
9.20063	0.00000	5315.72100
9.20446	0.00000	5315.72100
9.20831	0.00000	5315.72100
9.21215	0.00000	5315.72100
9.21600	0.00000	5287.78700
9.21985	0.00000	5287.78700
9.22369	0.00000	5287.78700
9.22752	0.00000	5287.78700
9.23136	0.00000	5287.78700
9.23520	0.00000	5287.78700
9.23904	0.00000	5310.88900
9.24288	0.00000	5310.88900
9.24672	0.00000	5310.88900
9.25056	0.00000	5310.88900
9.25440	0.00000	5310.88900
9.25824	0.00000	5310.88900
9.26208	0.00000	5310.88900
9.26592	0.00000	5285.39500
9.26976	0.00000	5285.39500
9.27361	0.00000	5285.39500
9.27745	0.00000	5285.39500
9.28129	0.00000	5285.39500
9.28512	0.00000	5285.39500
9.28896	0.00000	5285.39500
9.29277	0.00000	5290.17800
9.29662	0.00000	5290.17800
9.30046	0.00000	5290.17800
9.30430	0.00000	5290.17800
9.30816	0.00000	5290.17800
9.31199	0.00000	5290.17800
9.31584	0.00000	5318.13700
9.31968	0.00000	5318.13700
9.32352	0.00000	5318.13700
9.32736	0.00000	5318.13700
9.33120	0.00000	5318.13700
9.33503	0.00000	5318.13700
9.33889	0.00000	5318.13700
9.34273	0.00000	5292.57000
9.34660	0.00000	5292.57000
9.35047	0.00000	5292.57000
9.35431	0.00000	5292.57000
9.35817	0.00000	5292.57000
9.36200	0.00000	5292.57000
9.36585	0.00000	5259.08800
9.36969	0.00000	5259.08800
9.37353	0.00000	5259.08800
9.37739	0.00000	5259.08800
9.38124	0.00000	5259.08800
9.38508	0.00000	5259.08800
9.38893	0.00000	5259.08800
9.39277	0.00000	5266.26200
9.39662	0.00000	5266.26200
9.40047	0.00000	5266.26200
9.40431	0.00000	5266.26200
9.40816	0.00000	5266.26200
9.41200	0.00000	5266.26200
9.41585	0.00000	5266.26200
9.41969	0.00000	5342.30000
9.42353	0.00000	5342.30000
9.42737	0.00000	5342.30000
9.43120	0.00000	5342.30000
9.43504	0.00000	5342.30000
9.43887	0.00000	5342.30000
9.44273	0.00000	5310.88900
9.44658	0.00000	5310.88900
9.45044	0.00000	5310.88900
9.45429	0.00000	5310.88900
9.45812	0.00000	5310.88900
9.46197	0.00000	5310.88900
9.46580	0.00000	5310.88900
9.46965	0.00000	5290.17800
9.47349	0.00000	5290.17800
9.47734	0.00000	5290.17800
9.48118	0.00000	5290.17800
9.48502	0.00000	5290.17800
9.48886	0.00000	5290.17800
9.49271	0.00000	5290.17800
9.49653	0.00000	5327.80200
9.50038	0.00000	5327.80200
9.50422	0.00000	5327.80200
9.50806	0.00000	5327.80200
9.51190	0.00000	5327.80200
9.51574	0.00000	5327.80200
9.51957	0.00000	5313.30500
9.52341	0.00000	5313.30500
9.52724	0.00000	5313.30500
9.53110	0.00000	5313.30500
9.53494	0.00000	5313.30500
9.53879	0.00000	5313.30500
9.54262	0.00000	5313.30500
9.54646	0.00000	5287.78700
9.55030	0.00000	5287.78700
9.55414	0.00000	5287.78700
9.55798	0.00000	5287.78700
9.56182	0.00000	5287.78700
9.56565	0.00000	5287.78700
9.56948	0.00000	5315.72100
9.57335	0.00000	5315.72100
9.57719	0.00000	5315.72100
9.58104	0.00000	5315.72100
9.58488	0.00000	5315.72100
9.58874	0.00000	5315.72100
9.59259	0.00000	5315.72100
9.59642	0.00000	5337.46800
9.60025	0.00000	5337.46800
9.60410	0.00000	5337.46800
9.60793	0.00000	5337.46800
9.61177	0.00000	5337.46800
9.61561	0.00000	5337.46800
9.61946	0.00000	5337.46800
9.62330	0.00000	5287.78700
9.62714	0.00000	5287.78700
9.63098	0.00000	5287.78700
9.63483	0.00000	5287.78700
9.63868	0.00000	5287.78700
9.64252	0.00000	5287.78700
9.64636	0.00000	5310.88900
9.65019	0.00000	5310.88900
9.65404	0.00000	5310.88900
9.65788	0.00000	5310.88900
9.66172	0.00000	5310.88900
9.66556	0.00000	5310.88900
9.66939	0.00000	5310.88900
9.67324	0.00000	5342.30000
9.67708	0.00000	5342.30000
9.68093	0.00000	5342.30000
9.68476	0.00000	5342.30000
9.68861	0.00000	5342.30000
9.69245	0.00000	5342.30000
9.69630	0.00000	5310.88900
9.70014	0.00000	5310.88900
9.70398	0.00000	5310.88900
9.70783	0.00000	5310.88900
9.71166	0.00000	5310.88900
9.71550	0.00000	5310.88900
9.71934	0.00000	5310.88900
9.72319	0.00000	5268.65400
9.72702	0.00000	5268.65400
9.73087	0.00000	5268.65400
9.73470	0.00000	5268.65400
9.73854	0.00000	5268.65400
9.74238	0.00000	5268.65400
9.74622	0.00000	5268.65400
9.75007	0.00000	5292.57000
9.75391	0.00000	5292.57000
9.75775	0.00000	5292.57000
9.76159	0.00000	5292.57000
9.76542	0.00000	5292.57000
9.76927	0.00000	5292.57000
9.77310	0.00000	5318.13700
9.77696	0.00000	5318.13700
9.78078	0.00000	5318.13700
9.78463	0.00000	5318.13700
9.78847	0.00000	5318.13700
9.79230	0.00000	5318.13700
9.79615	0.00000	5318.13700
9.79999	0.00000	5287.78700
9.80383	0.00000	5287.78700
9.80766	0.00000	5287.78700
9.81150	0.00000	5287.78700
9.81535	0.00000	5287.78700
9.81919	0.00000	5287.78700
9.82305	0.00000	5287.78700
9.82692	0.00000	5332.63500
9.83096	0.00000	5332.63500
9.83482	0.00000	5332.63500
9.83867	0.00000	5332.63500
9.84252	0.00000	5332.63500
9.84636	0.00000	5332.63500
9.85019	0.00000	5315.72100
9.85404	0.00000	5315.72100
9.85788	0.00000	5315.72100
9.86172	0.00000	5315.72100
9.86556	0.00000	5315.72100
9.86940	0.00000	5315.72100
9.87324	0.00000	5315.72100
9.87707	0.00000	5294.96200
9.88091	0.00000	5294.96200
9.88474	0.00000	5294.96200
9.88860	0.00000	5294.96200
9.89244	0.00000	5294.96200
9.89628	0.00000	5294.96200
9.90012	0.00000	5315.72100
9.90397	0.00000	5315.72100
9.90781	0.00000	5315.72100
9.91165	0.00000	5315.72100
9.91549	0.00000	5315.72100
9.91932	0.00000	5315.72100
9.92315	0.00000	5315.72100
9.92700	0.00000	5292.57000
9.93083	0.00000	5292.57000
9.93468	0.00000	5292.57000
9.93852	0.00000	5292.57000
9.94236	0.00000	5292.57000
9.94619	0.00000	5292.57000
9.95004	0.00000	5292.57000
9.95388	0.00000	5294.96200
9.95772	0.00000	5294.96200
9.96156	0.00000	5294.96200
9.96540	0.00000	5294.96200
9.96924	0.00000	5294.96200
9.97308	0.00000	5294.96200
9.97692	0.00000	5315.72100
9.98076	0.00000	5315.72100
9.98462	0.00000	5315.72100
9.98846	0.00000	5315.72100
9.99229	0.00000	5315.72100
9.99613	0.00000	5315.72100
9.99996	0.00000	5315.72100
